time;alpha;phi;theta;alpha_dot;phi_dot;theta_dot
data in degree and degree/T; model parameters: PHI=120, phi_m=20, dTau=+0.05
0.000000e+00;-2.759949e+01;7.687736e+01;-5.969370e+00;5.053887e+02;1.328494e+01;1.189333e+00
1.000000e-03;-2.708641e+01;7.690393e+01;-5.966991e+00;5.207623e+02;2.555981e+01;2.728559e+00
2.000000e-03;-2.655796e+01;7.692848e+01;-5.963913e+00;5.361055e+02;2.354174e+01;3.432852e+00
3.000000e-03;-2.601420e+01;7.695101e+01;-5.960126e+00;5.514032e+02;2.152788e+01;4.146162e+00
4.000000e-03;-2.545516e+01;7.697153e+01;-5.955621e+00;5.666403e+02;1.951821e+01;4.868489e+00
5.000000e-03;-2.488092e+01;7.699005e+01;-5.950389e+00;5.818017e+02;1.751274e+01;5.599833e+00
6.000000e-03;-2.429155e+01;7.700656e+01;-5.944421e+00;5.968726e+02;1.551146e+01;6.340194e+00
7.000000e-03;-2.368717e+01;7.702107e+01;-5.937708e+00;6.118380e+02;1.351439e+01;7.089571e+00
8.000000e-03;-2.306788e+01;7.703359e+01;-5.930242e+00;6.266832e+02;1.152151e+01;7.847965e+00
9.000000e-03;-2.243380e+01;7.704411e+01;-5.922012e+00;6.413934e+02;9.532834e+00;8.615375e+00
1.000000e-02;-2.178509e+01;7.705265e+01;-5.913011e+00;6.559543e+02;7.547537e+00;9.390451e+00
1.100000e-02;-2.112190e+01;7.705921e+01;-5.903231e+00;6.703514e+02;5.564940e+00;1.017031e+01
1.200000e-02;-2.044439e+01;7.706378e+01;-5.892670e+00;6.845705e+02;3.586058e+00;1.095400e+01
1.300000e-02;-1.975275e+01;7.706638e+01;-5.881323e+00;6.985975e+02;1.611776e+00;1.174212e+01
1.400000e-02;-1.904719e+01;7.706701e+01;-5.869186e+00;7.124188e+02;-3.579071e-01;1.253465e+01
1.500000e-02;-1.832792e+01;7.706567e+01;-5.856254e+00;7.260205e+02;-2.322991e+00;1.333161e+01
1.600000e-02;-1.759515e+01;7.706236e+01;-5.842523e+00;7.393893e+02;-4.283476e+00;1.413299e+01
1.700000e-02;-1.684914e+01;7.705710e+01;-5.827988e+00;7.525119e+02;-6.239361e+00;1.493880e+01
1.800000e-02;-1.609013e+01;7.704988e+01;-5.812645e+00;7.653756e+02;-8.190648e+00;1.574902e+01
1.900000e-02;-1.531839e+01;7.704072e+01;-5.796490e+00;7.779674e+02;-1.013734e+01;1.656367e+01
2.000000e-02;-1.453419e+01;7.702961e+01;-5.779518e+00;7.902751e+02;-1.208031e+01;1.738218e+01
2.100000e-02;-1.373784e+01;7.701656e+01;-5.761726e+00;8.022864e+02;-1.402037e+01;1.820193e+01
2.200000e-02;-1.292962e+01;7.700157e+01;-5.743114e+00;8.139895e+02;-1.595649e+01;1.902044e+01
2.300000e-02;-1.210986e+01;7.698464e+01;-5.723685e+00;8.253729e+02;-1.788773e+01;1.983723e+01
2.400000e-02;-1.127887e+01;7.696579e+01;-5.703440e+00;8.364253e+02;-1.981410e+01;2.065230e+01
2.500000e-02;-1.043701e+01;7.694502e+01;-5.682380e+00;8.471359e+02;-2.173559e+01;2.146566e+01
2.600000e-02;-9.584603e+00;7.692232e+01;-5.660508e+00;8.574940e+02;-2.365220e+01;2.227730e+01
2.700000e-02;-8.722020e+00;7.689771e+01;-5.637826e+00;8.674894e+02;-2.556394e+01;2.308723e+01
2.800000e-02;-7.849624e+00;7.687119e+01;-5.614334e+00;8.771123e+02;-2.747081e+01;2.389545e+01
2.900000e-02;-6.967795e+00;7.684277e+01;-5.590035e+00;8.863531e+02;-2.937279e+01;2.470194e+01
3.000000e-02;-6.076918e+00;7.681245e+01;-5.564930e+00;8.952028e+02;-3.127085e+01;2.550721e+01
3.100000e-02;-5.177389e+00;7.678023e+01;-5.539020e+00;9.036526e+02;-3.316583e+01;2.630934e+01
3.200000e-02;-4.269613e+00;7.674612e+01;-5.512311e+00;9.116942e+02;-3.505667e+01;2.710426e+01
3.300000e-02;-3.354001e+00;7.671011e+01;-5.484812e+00;9.193196e+02;-3.694241e+01;2.789032e+01
3.400000e-02;-2.430974e+00;7.667223e+01;-5.456531e+00;9.265214e+02;-3.882304e+01;2.866750e+01
3.500000e-02;-1.500958e+00;7.663247e+01;-5.427477e+00;9.332923e+02;-4.069856e+01;2.943580e+01
3.600000e-02;-5.643889e-01;7.659083e+01;-5.397659e+00;9.396258e+02;-4.256897e+01;3.019523e+01
3.700000e-02;3.782935e-01;7.654733e+01;-5.367086e+00;9.455155e+02;-4.443428e+01;3.094578e+01
3.800000e-02;1.326642e+00;7.650197e+01;-5.335768e+00;9.509557e+02;-4.629447e+01;3.168746e+01
3.900000e-02;2.280205e+00;7.645474e+01;-5.303711e+00;9.559410e+02;-4.814955e+01;3.242026e+01
4.000000e-02;3.238524e+00;7.640567e+01;-5.270927e+00;9.604665e+02;-5.000041e+01;3.314587e+01
4.100000e-02;4.201138e+00;7.635474e+01;-5.237420e+00;9.645277e+02;-5.184792e+01;3.386352e+01
4.200000e-02;5.167580e+00;7.630197e+01;-5.203200e+00;9.681206e+02;-5.369116e+01;3.456781e+01
4.300000e-02;6.137379e+00;7.624736e+01;-5.168284e+00;9.712416e+02;-5.552927e+01;3.525585e+01
4.400000e-02;7.110063e+00;7.619091e+01;-5.132688e+00;9.738877e+02;-5.736222e+01;3.592762e+01
4.500000e-02;8.085154e+00;7.613263e+01;-5.096429e+00;9.760562e+02;-5.919003e+01;3.658314e+01
4.600000e-02;9.062175e+00;7.607253e+01;-5.059522e+00;9.777451e+02;-6.101269e+01;3.722240e+01
4.700000e-02;1.004064e+01;7.601061e+01;-5.021984e+00;9.789527e+02;-6.283021e+01;3.784539e+01
4.800000e-02;1.102008e+01;7.594687e+01;-4.983831e+00;9.796777e+02;-6.464258e+01;3.845213e+01
4.900000e-02;1.200000e+01;7.588132e+01;-4.945080e+00;4.899597e+02;-6.644980e+01;3.904260e+01
5.000000e-02;1.200000e+01;7.581397e+01;-4.905746e+00;4.899597e+02;-6.825280e+01;3.961972e+01
5.100000e-02;1.297992e+01;7.574482e+01;-4.865840e+00;9.796777e+02;-7.005245e+01;4.018413e+01
5.200000e-02;1.395936e+01;7.567387e+01;-4.825378e+00;9.789527e+02;-7.184771e+01;4.072954e+01
5.300000e-02;1.493782e+01;7.560112e+01;-4.784381e+00;9.777451e+02;-7.363760e+01;4.125191e+01
5.400000e-02;1.591485e+01;7.552659e+01;-4.742874e+00;9.760562e+02;-7.542214e+01;4.175125e+01
5.500000e-02;1.688994e+01;7.545028e+01;-4.700879e+00;9.738877e+02;-7.720131e+01;4.222755e+01
5.600000e-02;1.786262e+01;7.537219e+01;-4.658419e+00;9.712416e+02;-7.897512e+01;4.268081e+01
5.700000e-02;1.883242e+01;7.529233e+01;-4.615517e+00;9.681206e+02;-8.074358e+01;4.311103e+01
5.800000e-02;1.979886e+01;7.521070e+01;-4.572197e+00;9.645277e+02;-8.250667e+01;4.351822e+01
5.900000e-02;2.076148e+01;7.512731e+01;-4.528481e+00;9.604665e+02;-8.426440e+01;4.390237e+01
6.000000e-02;2.171980e+01;7.504217e+01;-4.484392e+00;9.559410e+02;-8.601781e+01;4.426750e+01
6.100000e-02;2.267336e+01;7.495528e+01;-4.439946e+00;9.509557e+02;-8.776795e+01;4.461586e+01
6.200000e-02;2.362171e+01;7.486664e+01;-4.395160e+00;9.455155e+02;-8.951382e+01;4.494082e+01
6.300000e-02;2.456439e+01;7.477625e+01;-4.350064e+00;9.396258e+02;-9.125437e+01;4.523749e+01
6.400000e-02;2.550096e+01;7.468413e+01;-4.304685e+00;9.332923e+02;-9.298962e+01;4.550586e+01
6.500000e-02;2.643097e+01;7.459027e+01;-4.259052e+00;9.265214e+02;-9.471955e+01;4.574596e+01
6.600000e-02;2.735400e+01;7.449469e+01;-4.213193e+00;9.193196e+02;-9.644416e+01;4.595776e+01
6.700000e-02;2.826961e+01;7.439738e+01;-4.167137e+00;9.116942e+02;-9.816347e+01;4.614127e+01
6.800000e-02;2.917739e+01;7.429836e+01;-4.120911e+00;9.036526e+02;-9.987746e+01;4.629649e+01
6.900000e-02;3.007692e+01;7.419763e+01;-4.074544e+00;8.952028e+02;-1.015861e+02;4.642343e+01
7.000000e-02;3.096779e+01;7.409519e+01;-4.028064e+00;8.863531e+02;-1.032905e+02;4.652693e+01
7.100000e-02;3.184962e+01;7.399105e+01;-3.981490e+00;8.771123e+02;-1.049914e+02;4.661086e+01
7.200000e-02;3.272202e+01;7.388521e+01;-3.934842e+00;8.674894e+02;-1.066880e+02;4.666886e+01
7.300000e-02;3.358460e+01;7.377767e+01;-3.888152e+00;8.574940e+02;-1.083793e+02;4.669559e+01
7.400000e-02;3.443701e+01;7.366845e+01;-3.841451e+00;8.471359e+02;-1.100653e+02;4.669104e+01
7.500000e-02;3.527887e+01;7.355754e+01;-3.794770e+00;8.364253e+02;-1.117460e+02;4.665521e+01
7.600000e-02;3.610986e+01;7.344496e+01;-3.748141e+00;8.253729e+02;-1.134213e+02;4.658810e+01
7.700000e-02;3.692962e+01;7.333070e+01;-3.701594e+00;8.139895e+02;-1.150914e+02;4.648972e+01
7.800000e-02;3.773784e+01;7.321477e+01;-3.655161e+00;8.022864e+02;-1.167561e+02;4.636006e+01
7.900000e-02;3.853419e+01;7.309719e+01;-3.608874e+00;7.902751e+02;-1.184156e+02;4.619912e+01
8.000000e-02;3.931839e+01;7.297794e+01;-3.562763e+00;7.779674e+02;-1.200706e+02;4.601223e+01
8.100000e-02;4.009013e+01;7.285705e+01;-3.516849e+00;7.653756e+02;-1.217222e+02;4.580465e+01
8.200000e-02;4.084914e+01;7.273450e+01;-3.471154e+00;7.525119e+02;-1.233695e+02;4.557101e+01
8.300000e-02;4.159515e+01;7.261031e+01;-3.425707e+00;7.393893e+02;-1.250115e+02;4.530597e+01
8.400000e-02;4.232792e+01;7.248448e+01;-3.380542e+00;7.260205e+02;-1.266484e+02;4.500953e+01
8.500000e-02;4.304719e+01;7.235701e+01;-3.335688e+00;7.124188e+02;-1.282800e+02;4.468170e+01
8.600000e-02;4.375275e+01;7.222792e+01;-3.291178e+00;6.985975e+02;-1.299065e+02;4.432246e+01
8.700000e-02;4.444439e+01;7.209720e+01;-3.247043e+00;6.845705e+02;-1.315277e+02;4.393183e+01
8.800000e-02;4.512190e+01;7.196486e+01;-3.203315e+00;6.703514e+02;-1.331437e+02;4.350979e+01
8.900000e-02;4.578509e+01;7.183091e+01;-3.160024e+00;6.559543e+02;-1.347545e+02;4.305636e+01
9.000000e-02;4.643380e+01;7.169535e+01;-3.117202e+00;6.413934e+02;-1.363610e+02;4.257682e+01
9.100000e-02;4.706788e+01;7.155819e+01;-3.074870e+00;6.266832e+02;-1.379641e+02;4.207746e+01
9.200000e-02;4.768717e+01;7.141942e+01;-3.033047e+00;6.118380e+02;-1.395628e+02;4.155448e+01
9.300000e-02;4.829155e+01;7.127906e+01;-2.991761e+00;5.968726e+02;-1.411564e+02;4.100307e+01
9.400000e-02;4.888092e+01;7.113711e+01;-2.951041e+00;5.818017e+02;-1.427448e+02;4.042324e+01
9.500000e-02;4.945516e+01;7.099357e+01;-2.910915e+00;5.666403e+02;-1.443280e+02;3.981499e+01
9.600000e-02;5.001420e+01;7.084845e+01;-2.871411e+00;5.514032e+02;-1.459060e+02;3.917832e+01
9.700000e-02;5.055796e+01;7.070176e+01;-2.832558e+00;5.361055e+02;-1.474787e+02;3.851322e+01
9.800000e-02;5.108641e+01;7.055350e+01;-2.794385e+00;5.207623e+02;-1.490463e+02;3.781970e+01
9.900000e-02;5.159949e+01;7.040367e+01;-2.756919e+00;5.053887e+02;-1.506087e+02;3.709776e+01
1.000000e-01;5.209718e+01;7.025228e+01;-2.720189e+00;4.900000e+02;-1.521669e+02;3.635217e+01
1.010000e-01;5.257949e+01;7.009933e+01;-2.684214e+00;4.746113e+02;-1.537218e+02;3.558968e+01
1.020000e-01;5.304641e+01;6.994484e+01;-2.649010e+00;4.592377e+02;-1.552726e+02;3.480853e+01
1.030000e-01;5.349796e+01;6.978879e+01;-2.614597e+00;4.438945e+02;-1.568183e+02;3.400498e+01
1.040000e-01;5.393420e+01;6.963120e+01;-2.581000e+00;4.285968e+02;-1.583587e+02;3.317902e+01
1.050000e-01;5.435516e+01;6.947207e+01;-2.548239e+00;4.133597e+02;-1.598940e+02;3.233064e+01
1.060000e-01;5.476092e+01;6.931141e+01;-2.516338e+00;3.981983e+02;-1.614242e+02;3.145986e+01
1.070000e-01;5.515155e+01;6.914922e+01;-2.485320e+00;3.831274e+02;-1.629491e+02;3.056666e+01
1.080000e-01;5.552717e+01;6.898551e+01;-2.455205e+00;3.681620e+02;-1.644690e+02;2.965105e+01
1.090000e-01;5.588788e+01;6.882028e+01;-2.426017e+00;3.533168e+02;-1.659836e+02;2.871304e+01
1.100000e-01;5.623380e+01;6.865355e+01;-2.397779e+00;3.386066e+02;-1.674941e+02;2.775633e+01
1.110000e-01;5.656509e+01;6.848530e+01;-2.370505e+00;3.240457e+02;-1.690013e+02;2.678751e+01
1.120000e-01;5.688190e+01;6.831554e+01;-2.344204e+00;3.096486e+02;-1.705044e+02;2.580717e+01
1.130000e-01;5.718439e+01;6.814429e+01;-2.318890e+00;2.954295e+02;-1.720024e+02;2.481302e+01
1.140000e-01;5.747275e+01;6.797154e+01;-2.294578e+00;2.814025e+02;-1.734954e+02;2.380505e+01
1.150000e-01;5.774719e+01;6.779730e+01;-2.271280e+00;2.675812e+02;-1.749834e+02;2.278326e+01
1.160000e-01;5.800792e+01;6.762157e+01;-2.249011e+00;2.539795e+02;-1.764664e+02;2.174766e+01
1.170000e-01;5.825515e+01;6.744436e+01;-2.227785e+00;2.406107e+02;-1.779443e+02;2.069824e+01
1.180000e-01;5.848914e+01;6.726568e+01;-2.207615e+00;2.274881e+02;-1.794172e+02;1.963501e+01
1.190000e-01;5.871013e+01;6.708553e+01;-2.188515e+00;2.146244e+02;-1.808851e+02;1.855797e+01
1.200000e-01;5.891839e+01;6.690391e+01;-2.170499e+00;2.020326e+02;-1.823488e+02;1.746936e+01
1.210000e-01;5.911419e+01;6.672083e+01;-2.153576e+00;1.897249e+02;-1.838093e+02;1.637490e+01
1.220000e-01;5.929784e+01;6.653629e+01;-2.137749e+00;1.777136e+02;-1.852656e+02;1.527756e+01
1.230000e-01;5.946962e+01;6.635030e+01;-2.123021e+00;1.660105e+02;-1.867170e+02;1.417682e+01
1.240000e-01;5.962986e+01;6.616286e+01;-2.109396e+00;1.546271e+02;-1.881632e+02;1.307267e+01
1.250000e-01;5.977887e+01;6.597397e+01;-2.096876e+00;1.435747e+02;-1.896045e+02;1.196512e+01
1.260000e-01;5.991701e+01;6.578365e+01;-2.085465e+00;1.328641e+02;-1.910407e+02;1.085416e+01
1.270000e-01;6.004460e+01;6.559189e+01;-2.075167e+00;1.225060e+02;-1.924719e+02;9.739798e+00
1.280000e-01;6.016202e+01;6.539871e+01;-2.065986e+00;1.125106e+02;-1.938980e+02;8.622033e+00
1.290000e-01;6.026962e+01;6.520410e+01;-2.057923e+00;1.028877e+02;-1.953191e+02;7.500865e+00
1.300000e-01;6.036779e+01;6.500807e+01;-2.050984e+00;9.364688e+01;-1.967361e+02;6.376779e+00
1.310000e-01;6.045692e+01;6.481063e+01;-2.045170e+00;8.479718e+01;-1.981501e+02;5.253996e+00
1.320000e-01;6.053739e+01;6.461177e+01;-2.040476e+00;7.634737e+01;-1.995599e+02;4.137637e+00
1.330000e-01;6.060961e+01;6.441151e+01;-2.036895e+00;6.830578e+01;-2.009648e+02;3.029081e+00
1.340000e-01;6.067400e+01;6.420984e+01;-2.034418e+00;6.068036e+01;-2.023646e+02;1.928330e+00
1.350000e-01;6.073097e+01;6.400678e+01;-2.033038e+00;5.347862e+01;-2.037594e+02;8.353827e-01
1.360000e-01;6.078096e+01;6.380232e+01;-2.032747e+00;4.670767e+01;-2.051492e+02;-2.497599e-01
1.370000e-01;6.082439e+01;6.359648e+01;-2.033537e+00;4.037420e+01;-2.065339e+02;-1.327098e+00
1.380000e-01;6.086171e+01;6.338925e+01;-2.035401e+00;3.448446e+01;-2.079136e+02;-2.396632e+00
1.390000e-01;6.089336e+01;6.318065e+01;-2.038331e+00;2.904426e+01;-2.092882e+02;-3.458362e+00
1.400000e-01;6.091980e+01;6.297068e+01;-2.042318e+00;2.405896e+01;-2.106589e+02;-4.513688e+00
1.410000e-01;6.094148e+01;6.275933e+01;-2.047358e+00;1.953349e+01;-2.120265e+02;-5.560391e+00
1.420000e-01;6.095886e+01;6.254662e+01;-2.053439e+00;1.547232e+01;-2.133901e+02;-6.591643e+00
1.430000e-01;6.097242e+01;6.233255e+01;-2.060541e+00;1.187944e+01;-2.147486e+02;-7.604236e+00
1.440000e-01;6.098262e+01;6.211713e+01;-2.068647e+00;8.758417e+00;-2.161020e+02;-8.598168e+00
1.450000e-01;6.098994e+01;6.190035e+01;-2.077738e+00;6.112319e+00;-2.174503e+02;-9.573440e+00
1.460000e-01;6.099485e+01;6.168223e+01;-2.087794e+00;3.943759e+00;-2.187936e+02;-1.053005e+01
1.470000e-01;6.099782e+01;6.146276e+01;-2.098798e+00;2.254877e+00;-2.201317e+02;-1.146800e+01
1.480000e-01;6.099936e+01;6.124196e+01;-2.110730e+00;1.047342e+00;-2.214647e+02;-1.238730e+01
1.490000e-01;6.099992e+01;6.101983e+01;-2.123572e+00;3.223434e-01;-2.227927e+02;-1.328793e+01
1.500000e-01;6.100000e+01;6.079638e+01;-2.137306e+00;4.029890e-02;-2.241165e+02;-1.417312e+01
1.510000e-01;6.100000e+01;6.057160e+01;-2.151919e+00;0.000000e+00;-2.254371e+02;-1.504297e+01
1.520000e-01;6.100000e+01;6.034550e+01;-2.167392e+00;0.000000e+00;-2.267536e+02;-1.588958e+01
1.530000e-01;6.100000e+01;6.011809e+01;-2.183698e+00;0.000000e+00;-2.280650e+02;-1.670818e+01
1.540000e-01;6.100000e+01;5.988937e+01;-2.200808e+00;0.000000e+00;-2.293714e+02;-1.749877e+01
1.550000e-01;6.100000e+01;5.965935e+01;-2.218695e+00;0.000000e+00;-2.306728e+02;-1.826135e+01
1.560000e-01;6.100000e+01;5.942803e+01;-2.237331e+00;0.000000e+00;-2.319692e+02;-1.899591e+01
1.570000e-01;6.100000e+01;5.919541e+01;-2.256687e+00;0.000000e+00;-2.332605e+02;-1.970247e+01
1.580000e-01;6.100000e+01;5.896151e+01;-2.276736e+00;0.000000e+00;-2.345468e+02;-2.038101e+01
1.590000e-01;6.100000e+01;5.872632e+01;-2.297449e+00;0.000000e+00;-2.358281e+02;-2.103154e+01
1.600000e-01;6.100000e+01;5.848985e+01;-2.318799e+00;0.000000e+00;-2.371053e+02;-2.165884e+01
1.610000e-01;6.100000e+01;5.825211e+01;-2.340767e+00;0.000000e+00;-2.383792e+02;-2.226543e+01
1.620000e-01;6.100000e+01;5.801309e+01;-2.363330e+00;0.000000e+00;-2.396488e+02;-2.284308e+01
1.630000e-01;6.100000e+01;5.777281e+01;-2.386453e+00;0.000000e+00;-2.409132e+02;-2.338590e+01
1.640000e-01;6.100000e+01;5.753126e+01;-2.410102e+00;0.000000e+00;-2.421722e+02;-2.389386e+01
1.650000e-01;6.100000e+01;5.728846e+01;-2.434241e+00;0.000000e+00;-2.434259e+02;-2.436698e+01
1.660000e-01;6.100000e+01;5.704441e+01;-2.458836e+00;0.000000e+00;-2.446744e+02;-2.480526e+01
1.670000e-01;6.100000e+01;5.679912e+01;-2.483851e+00;0.000000e+00;-2.459175e+02;-2.520869e+01
1.680000e-01;6.100000e+01;5.655258e+01;-2.509253e+00;0.000000e+00;-2.471554e+02;-2.557727e+01
1.690000e-01;6.100000e+01;5.630480e+01;-2.535006e+00;0.000000e+00;-2.483879e+02;-2.591101e+01
1.700000e-01;6.100000e+01;5.605580e+01;-2.561075e+00;0.000000e+00;-2.496162e+02;-2.621582e+01
1.710000e-01;6.100000e+01;5.580557e+01;-2.587437e+00;0.000000e+00;-2.508413e+02;-2.649645e+01
1.720000e-01;6.100000e+01;5.555412e+01;-2.614068e+00;0.000000e+00;-2.520620e+02;-2.674520e+01
1.730000e-01;6.100000e+01;5.530145e+01;-2.640928e+00;0.000000e+00;-2.532774e+02;-2.695557e+01
1.740000e-01;6.100000e+01;5.504756e+01;-2.667979e+00;0.000000e+00;-2.544873e+02;-2.712755e+01
1.750000e-01;6.100000e+01;5.479247e+01;-2.695183e+00;0.000000e+00;-2.556919e+02;-2.726114e+01
1.760000e-01;6.100000e+01;5.453618e+01;-2.722501e+00;0.000000e+00;-2.568911e+02;-2.735635e+01
1.770000e-01;6.100000e+01;5.427869e+01;-2.749896e+00;0.000000e+00;-2.580849e+02;-2.741318e+01
1.780000e-01;6.100000e+01;5.402001e+01;-2.777328e+00;0.000000e+00;-2.592732e+02;-2.743161e+01
1.790000e-01;6.100000e+01;5.376014e+01;-2.804759e+00;0.000000e+00;-2.604562e+02;-2.741167e+01
1.800000e-01;6.100000e+01;5.349910e+01;-2.832151e+00;0.000000e+00;-2.616347e+02;-2.735985e+01
1.810000e-01;6.100000e+01;5.323688e+01;-2.859479e+00;0.000000e+00;-2.628097e+02;-2.728274e+01
1.820000e-01;6.100000e+01;5.297348e+01;-2.886716e+00;0.000000e+00;-2.639799e+02;-2.717387e+01
1.830000e-01;6.100000e+01;5.270892e+01;-2.913826e+00;0.000000e+00;-2.651446e+02;-2.702676e+01
1.840000e-01;6.100000e+01;5.244319e+01;-2.940770e+00;0.000000e+00;-2.663036e+02;-2.684140e+01
1.850000e-01;6.100000e+01;5.217631e+01;-2.967509e+00;0.000000e+00;-2.674571e+02;-2.661779e+01
1.860000e-01;6.100000e+01;5.190828e+01;-2.994006e+00;0.000000e+00;-2.686049e+02;-2.635593e+01
1.870000e-01;6.100000e+01;5.163910e+01;-3.020221e+00;0.000000e+00;-2.697472e+02;-2.605583e+01
1.880000e-01;6.100000e+01;5.136878e+01;-3.046117e+00;0.000000e+00;-2.708838e+02;-2.571748e+01
1.890000e-01;6.100000e+01;5.109733e+01;-3.071656e+00;0.000000e+00;-2.720149e+02;-2.534089e+01
1.900000e-01;6.100000e+01;5.082475e+01;-3.096799e+00;0.000000e+00;-2.731413e+02;-2.493254e+01
1.910000e-01;6.100000e+01;5.055105e+01;-3.121521e+00;0.000000e+00;-2.742642e+02;-2.450024e+01
1.920000e-01;6.100000e+01;5.027622e+01;-3.145799e+00;0.000000e+00;-2.753821e+02;-2.403942e+01
1.930000e-01;6.100000e+01;5.000028e+01;-3.169600e+00;0.000000e+00;-2.764940e+02;-2.354422e+01
1.940000e-01;6.100000e+01;4.972324e+01;-3.192888e+00;0.000000e+00;-2.775999e+02;-2.301465e+01
1.950000e-01;6.100000e+01;4.944508e+01;-3.215629e+00;0.000000e+00;-2.786997e+02;-2.245070e+01
1.960000e-01;6.100000e+01;4.916584e+01;-3.237789e+00;0.000000e+00;-2.797935e+02;-2.185238e+01
1.970000e-01;6.100000e+01;4.888550e+01;-3.259334e+00;0.000000e+00;-2.808813e+02;-2.121968e+01
1.980000e-01;6.100000e+01;4.860407e+01;-3.280229e+00;0.000000e+00;-2.819630e+02;-2.055261e+01
1.990000e-01;6.100000e+01;4.832157e+01;-3.300439e+00;0.000000e+00;-2.830387e+02;-1.985116e+01
2.000000e-01;6.100000e+01;4.803800e+01;-3.319931e+00;0.000000e+00;-2.841095e+02;-1.912117e+01
2.010000e-01;6.100000e+01;4.775335e+01;-3.338681e+00;0.000000e+00;-2.851765e+02;-1.837086e+01
2.020000e-01;6.100000e+01;4.746764e+01;-3.356673e+00;0.000000e+00;-2.862384e+02;-1.759800e+01
2.030000e-01;6.100000e+01;4.718088e+01;-3.373877e+00;0.000000e+00;-2.872940e+02;-1.679794e+01
2.040000e-01;6.100000e+01;4.689305e+01;-3.390269e+00;0.000000e+00;-2.883432e+02;-1.597070e+01
2.050000e-01;6.100000e+01;4.660419e+01;-3.405819e+00;0.000000e+00;-2.893861e+02;-1.511626e+01
2.060000e-01;6.100000e+01;4.631428e+01;-3.420501e+00;0.000000e+00;-2.904226e+02;-1.423463e+01
2.070000e-01;6.100000e+01;4.602334e+01;-3.434288e+00;0.000000e+00;-2.914528e+02;-1.332582e+01
2.080000e-01;6.100000e+01;4.573138e+01;-3.447153e+00;0.000000e+00;-2.924766e+02;-1.238981e+01
2.090000e-01;6.100000e+01;4.543839e+01;-3.459068e+00;0.000000e+00;-2.934941e+02;-1.142662e+01
2.100000e-01;6.100000e+01;4.514439e+01;-3.470006e+00;0.000000e+00;-2.945065e+02;-1.044084e+01
2.110000e-01;6.100000e+01;4.484938e+01;-3.479949e+00;0.000000e+00;-2.955146e+02;-9.440359e+00
2.120000e-01;6.100000e+01;4.455336e+01;-3.488887e+00;0.000000e+00;-2.965172e+02;-8.425416e+00
2.130000e-01;6.100000e+01;4.425634e+01;-3.496800e+00;0.000000e+00;-2.975130e+02;-7.393025e+00
2.140000e-01;6.100000e+01;4.395833e+01;-3.503673e+00;0.000000e+00;-2.985019e+02;-6.343185e+00
2.150000e-01;6.100000e+01;4.365934e+01;-3.509487e+00;0.000000e+00;-2.994840e+02;-5.275896e+00
2.160000e-01;6.100000e+01;4.335937e+01;-3.514225e+00;0.000000e+00;-3.004593e+02;-4.191158e+00
2.170000e-01;6.100000e+01;4.305842e+01;-3.517869e+00;0.000000e+00;-3.014277e+02;-3.088971e+00
2.180000e-01;6.100000e+01;4.275651e+01;-3.520403e+00;0.000000e+00;-3.023894e+02;-1.969335e+00
2.190000e-01;6.100000e+01;4.245364e+01;-3.521808e+00;0.000000e+00;-3.033442e+02;-8.322498e-01
2.200000e-01;6.100000e+01;4.214982e+01;-3.522067e+00;0.000000e+00;-3.042934e+02;3.193060e-01
2.210000e-01;6.100000e+01;4.184505e+01;-3.521169e+00;0.000000e+00;-3.052382e+02;1.478598e+00
2.220000e-01;6.100000e+01;4.153935e+01;-3.519110e+00;0.000000e+00;-3.061770e+02;2.642971e+00
2.230000e-01;6.100000e+01;4.123270e+01;-3.515883e+00;0.000000e+00;-3.071085e+02;3.813525e+00
2.240000e-01;6.100000e+01;4.092513e+01;-3.511483e+00;0.000000e+00;-3.080326e+02;4.990260e+00
2.250000e-01;6.100000e+01;4.061664e+01;-3.505903e+00;0.000000e+00;-3.089495e+02;6.173176e+00
2.260000e-01;6.100000e+01;4.030723e+01;-3.499136e+00;0.000000e+00;-3.098590e+02;7.362273e+00
2.270000e-01;6.100000e+01;3.999692e+01;-3.491178e+00;0.000000e+00;-3.107611e+02;8.557551e+00
2.280000e-01;6.100000e+01;3.968571e+01;-3.482021e+00;0.000000e+00;-3.116559e+02;9.759010e+00
2.290000e-01;6.100000e+01;3.937361e+01;-3.471660e+00;0.000000e+00;-3.125434e+02;1.096665e+01
2.300000e-01;6.100000e+01;3.906062e+01;-3.460088e+00;0.000000e+00;-3.134250e+02;1.217939e+01
2.310000e-01;6.100000e+01;3.874676e+01;-3.447301e+00;0.000000e+00;-3.143020e+02;1.339228e+01
2.320000e-01;6.100000e+01;3.843202e+01;-3.433303e+00;0.000000e+00;-3.151724e+02;1.460058e+01
2.330000e-01;6.100000e+01;3.811641e+01;-3.418100e+00;0.000000e+00;-3.160349e+02;1.580344e+01
2.340000e-01;6.100000e+01;3.779995e+01;-3.401697e+00;0.000000e+00;-3.168894e+02;1.700084e+01
2.350000e-01;6.100000e+01;3.748263e+01;-3.384098e+00;0.000000e+00;-3.177359e+02;1.819279e+01
2.360000e-01;6.100000e+01;3.716448e+01;-3.365311e+00;0.000000e+00;-3.185743e+02;1.937930e+01
2.370000e-01;6.100000e+01;3.684548e+01;-3.345340e+00;0.000000e+00;-3.194048e+02;2.056036e+01
2.380000e-01;6.100000e+01;3.652567e+01;-3.324190e+00;0.000000e+00;-3.202273e+02;2.173597e+01
2.390000e-01;6.100000e+01;3.620503e+01;-3.301868e+00;0.000000e+00;-3.210418e+02;2.290613e+01
2.400000e-01;6.100000e+01;3.588358e+01;-3.278378e+00;0.000000e+00;-3.218499e+02;2.407174e+01
2.410000e-01;6.100000e+01;3.556133e+01;-3.253724e+00;0.000000e+00;-3.226528e+02;2.523010e+01
2.420000e-01;6.100000e+01;3.523828e+01;-3.227918e+00;0.000000e+00;-3.234489e+02;2.637490e+01
2.430000e-01;6.100000e+01;3.491443e+01;-3.200975e+00;0.000000e+00;-3.242364e+02;2.750347e+01
2.440000e-01;6.100000e+01;3.458980e+01;-3.172911e+00;0.000000e+00;-3.250153e+02;2.861579e+01
2.450000e-01;6.100000e+01;3.426440e+01;-3.143743e+00;0.000000e+00;-3.257857e+02;2.971187e+01
2.460000e-01;6.100000e+01;3.393823e+01;-3.113487e+00;0.000000e+00;-3.265475e+02;3.079171e+01
2.470000e-01;6.100000e+01;3.361131e+01;-3.082160e+00;0.000000e+00;-3.273008e+02;3.185530e+01
2.480000e-01;6.100000e+01;3.328363e+01;-3.049777e+00;0.000000e+00;-3.280455e+02;3.290265e+01
2.490000e-01;6.100000e+01;3.295521e+01;-3.016354e+00;0.000000e+00;-3.287816e+02;3.393376e+01
2.500000e-01;6.100000e+01;3.262607e+01;-2.981909e+00;0.000000e+00;-3.295108e+02;3.495135e+01
2.510000e-01;6.100000e+01;3.229619e+01;-2.946452e+00;0.000000e+00;-3.302343e+02;3.595518e+01
2.520000e-01;6.100000e+01;3.196560e+01;-2.909999e+00;0.000000e+00;-3.309503e+02;3.693810e+01
2.530000e-01;6.100000e+01;3.163429e+01;-2.872575e+00;0.000000e+00;-3.316570e+02;3.789587e+01
2.540000e-01;6.100000e+01;3.130228e+01;-2.834207e+00;0.000000e+00;-3.323544e+02;3.882852e+01
2.550000e-01;6.100000e+01;3.096958e+01;-2.794918e+00;0.000000e+00;-3.330426e+02;3.973603e+01
2.560000e-01;6.100000e+01;3.063620e+01;-2.754735e+00;0.000000e+00;-3.337215e+02;4.061841e+01
2.570000e-01;6.100000e+01;3.030214e+01;-2.713682e+00;0.000000e+00;-3.343912e+02;4.147566e+01
2.580000e-01;6.100000e+01;2.996742e+01;-2.671784e+00;0.000000e+00;-3.350516e+02;4.230777e+01
2.590000e-01;6.100000e+01;2.963204e+01;-2.629066e+00;0.000000e+00;-3.357027e+02;4.311475e+01
2.600000e-01;6.100000e+01;2.929601e+01;-2.585554e+00;0.000000e+00;-3.363463e+02;4.390085e+01
2.610000e-01;6.100000e+01;2.895934e+01;-2.541264e+00;0.000000e+00;-3.369839e+02;4.466823e+01
2.620000e-01;6.100000e+01;2.862204e+01;-2.496218e+00;0.000000e+00;-3.376133e+02;4.540955e+01
2.630000e-01;6.100000e+01;2.828412e+01;-2.450445e+00;0.000000e+00;-3.382327e+02;4.611955e+01
2.640000e-01;6.100000e+01;2.794558e+01;-2.403978e+00;0.000000e+00;-3.388421e+02;4.679821e+01
2.650000e-01;6.100000e+01;2.760643e+01;-2.356849e+00;0.000000e+00;-3.394415e+02;4.744553e+01
2.660000e-01;6.100000e+01;2.726670e+01;-2.309087e+00;0.000000e+00;-3.400309e+02;4.806153e+01
2.670000e-01;6.100000e+01;2.692637e+01;-2.260726e+00;0.000000e+00;-3.406102e+02;4.864619e+01
2.680000e-01;6.100000e+01;2.658547e+01;-2.211795e+00;0.000000e+00;-3.411796e+02;4.919951e+01
2.690000e-01;6.100000e+01;2.624401e+01;-2.162327e+00;0.000000e+00;-3.417389e+02;4.972151e+01
2.700000e-01;6.100000e+01;2.590200e+01;-2.112352e+00;0.000000e+00;-3.422901e+02;5.021748e+01
2.710000e-01;6.100000e+01;2.555943e+01;-2.061892e+00;0.000000e+00;-3.428347e+02;5.069175e+01
2.720000e-01;6.100000e+01;2.521633e+01;-2.010968e+00;0.000000e+00;-3.433706e+02;5.113749e+01
2.730000e-01;6.100000e+01;2.487269e+01;-1.959617e+00;0.000000e+00;-3.438957e+02;5.154888e+01
2.740000e-01;6.100000e+01;2.452854e+01;-1.907871e+00;0.000000e+00;-3.444101e+02;5.192592e+01
2.750000e-01;6.100000e+01;2.418387e+01;-1.855765e+00;0.000000e+00;-3.449137e+02;5.226860e+01
2.760000e-01;6.100000e+01;2.383871e+01;-1.803334e+00;0.000000e+00;-3.454066e+02;5.257694e+01
2.770000e-01;6.100000e+01;2.349306e+01;-1.750611e+00;0.000000e+00;-3.458887e+02;5.285092e+01
2.780000e-01;6.100000e+01;2.314693e+01;-1.697632e+00;0.000000e+00;-3.463601e+02;5.309056e+01
2.790000e-01;6.100000e+01;2.280034e+01;-1.644430e+00;0.000000e+00;-3.468207e+02;5.329584e+01
2.800000e-01;6.100000e+01;2.245329e+01;-1.591040e+00;0.000000e+00;-3.472725e+02;5.347263e+01
2.810000e-01;6.100000e+01;2.210579e+01;-1.537485e+00;0.000000e+00;-3.477173e+02;5.362685e+01
2.820000e-01;6.100000e+01;2.175786e+01;-1.483786e+00;0.000000e+00;-3.481526e+02;5.375276e+01
2.830000e-01;6.100000e+01;2.140949e+01;-1.429979e+00;0.000000e+00;-3.485764e+02;5.384454e+01
2.840000e-01;6.100000e+01;2.106070e+01;-1.376097e+00;0.000000e+00;-3.489887e+02;5.390219e+01
2.850000e-01;6.100000e+01;2.071151e+01;-1.322175e+00;0.000000e+00;-3.493894e+02;5.392571e+01
2.860000e-01;6.100000e+01;2.036192e+01;-1.268246e+00;0.000000e+00;-3.497786e+02;5.391511e+01
2.870000e-01;6.100000e+01;2.001195e+01;-1.214345e+00;0.000000e+00;-3.501562e+02;5.387038e+01
2.880000e-01;6.100000e+01;1.966161e+01;-1.160505e+00;0.000000e+00;-3.505223e+02;5.379151e+01
2.890000e-01;6.100000e+01;1.931091e+01;-1.106761e+00;0.000000e+00;-3.508768e+02;5.367852e+01
2.900000e-01;6.100000e+01;1.895986e+01;-1.053148e+00;0.000000e+00;-3.512220e+02;5.353727e+01
2.910000e-01;6.100000e+01;1.860846e+01;-9.996869e-01;0.000000e+00;-3.515596e+02;5.337469e+01
2.920000e-01;6.100000e+01;1.825674e+01;-9.463986e-01;0.000000e+00;-3.518871e+02;5.318649e+01
2.930000e-01;6.100000e+01;1.790469e+01;-8.933140e-01;0.000000e+00;-3.522023e+02;5.296733e+01
2.940000e-01;6.100000e+01;1.755233e+01;-8.404640e-01;0.000000e+00;-3.525052e+02;5.271721e+01
2.950000e-01;6.100000e+01;1.719968e+01;-7.878795e-01;0.000000e+00;-3.527957e+02;5.243612e+01
2.960000e-01;6.100000e+01;1.684674e+01;-7.355917e-01;0.000000e+00;-3.530738e+02;5.212407e+01
2.970000e-01;6.100000e+01;1.649353e+01;-6.836314e-01;0.000000e+00;-3.533396e+02;5.178106e+01
2.980000e-01;6.100000e+01;1.614006e+01;-6.320296e-01;0.000000e+00;-3.535931e+02;5.140708e+01
2.990000e-01;6.100000e+01;1.578635e+01;-5.808172e-01;0.000000e+00;-3.538342e+02;5.100215e+01
3.000000e-01;6.100000e+01;1.543239e+01;-5.300253e-01;0.000000e+00;-3.540653e+02;5.057164e+01
3.010000e-01;6.100000e+01;1.507822e+01;-4.796740e-01;0.000000e+00;-3.542884e+02;5.012277e+01
3.020000e-01;6.100000e+01;1.472382e+01;-4.297798e-01;0.000000e+00;-3.545007e+02;4.965291e+01
3.030000e-01;6.100000e+01;1.436921e+01;-3.803682e-01;0.000000e+00;-3.547000e+02;4.915758e+01
3.040000e-01;6.100000e+01;1.401442e+01;-3.314646e-01;0.000000e+00;-3.548861e+02;4.863678e+01
3.050000e-01;6.100000e+01;1.365944e+01;-2.830946e-01;0.000000e+00;-3.550590e+02;4.809053e+01
3.060000e-01;6.100000e+01;1.330430e+01;-2.352836e-01;0.000000e+00;-3.552189e+02;4.751880e+01
3.070000e-01;6.100000e+01;1.294900e+01;-1.880570e-01;0.000000e+00;-3.553656e+02;4.692161e+01
3.080000e-01;6.100000e+01;1.259357e+01;-1.414403e-01;0.000000e+00;-3.554991e+02;4.629895e+01
3.090000e-01;6.100000e+01;1.223801e+01;-9.545908e-02;0.000000e+00;-3.556195e+02;4.565083e+01
3.100000e-01;6.100000e+01;1.188233e+01;-5.013867e-02;0.000000e+00;-3.557293e+02;4.498175e+01
3.110000e-01;6.100000e+01;1.152655e+01;-5.495584e-03;0.000000e+00;-3.558305e+02;4.429851e+01
3.120000e-01;6.100000e+01;1.117067e+01;3.845835e-02;0.000000e+00;-3.559204e+02;4.360010e+01
3.130000e-01;6.100000e+01;1.081471e+01;8.170461e-02;0.000000e+00;-3.559965e+02;4.288317e+01
3.140000e-01;6.100000e+01;1.045868e+01;1.242247e-01;0.000000e+00;-3.560586e+02;4.214772e+01
3.150000e-01;6.100000e+01;1.010259e+01;1.660000e-01;0.000000e+00;-3.561068e+02;4.139375e+01
3.160000e-01;6.100000e+01;9.746462e+00;2.070122e-01;0.000000e+00;-3.561411e+02;4.062126e+01
3.170000e-01;6.100000e+01;9.390308e+00;2.472426e-01;0.000000e+00;-3.561616e+02;3.983026e+01
3.180000e-01;6.100000e+01;9.034139e+00;2.866727e-01;0.000000e+00;-3.561681e+02;3.902074e+01
3.190000e-01;6.100000e+01;8.677971e+00;3.252840e-01;0.000000e+00;-3.561608e+02;3.819270e+01
3.200000e-01;6.100000e+01;8.321818e+00;3.630581e-01;0.000000e+00;-3.561421e+02;3.734951e+01
3.210000e-01;6.100000e+01;7.965687e+00;3.999831e-01;0.000000e+00;-3.561145e+02;3.649700e+01
3.220000e-01;6.100000e+01;7.609589e+00;4.360521e-01;0.000000e+00;-3.560749e+02;3.563552e+01
3.230000e-01;6.100000e+01;7.253537e+00;4.712541e-01;0.000000e+00;-3.560208e+02;3.476295e+01
3.240000e-01;6.100000e+01;6.897547e+00;5.055780e-01;0.000000e+00;-3.559519e+02;3.387928e+01
3.250000e-01;6.100000e+01;6.541633e+00;5.390127e-01;0.000000e+00;-3.558685e+02;3.298452e+01
3.260000e-01;6.100000e+01;6.185810e+00;5.715470e-01;0.000000e+00;-3.557704e+02;3.207865e+01
3.270000e-01;6.100000e+01;5.830092e+00;6.031700e-01;0.000000e+00;-3.556577e+02;3.116169e+01
3.280000e-01;6.100000e+01;5.474495e+00;6.338704e-01;0.000000e+00;-3.555303e+02;3.023364e+01
3.290000e-01;6.100000e+01;5.119032e+00;6.636373e-01;0.000000e+00;-3.553883e+02;2.929449e+01
3.300000e-01;6.100000e+01;4.763718e+00;6.924594e-01;0.000000e+00;-3.552344e+02;2.834638e+01
3.310000e-01;6.100000e+01;4.408563e+00;7.203300e-01;0.000000e+00;-3.550711e+02;2.739375e+01
3.320000e-01;6.100000e+01;4.053576e+00;7.472469e-01;0.000000e+00;-3.548953e+02;2.643794e+01
3.330000e-01;6.100000e+01;3.698772e+00;7.732059e-01;0.000000e+00;-3.547041e+02;2.547797e+01
3.340000e-01;6.100000e+01;3.344168e+00;7.982028e-01;0.000000e+00;-3.544977e+02;2.451382e+01
3.350000e-01;6.100000e+01;2.989777e+00;8.222335e-01;0.000000e+00;-3.542760e+02;2.354552e+01
3.360000e-01;6.100000e+01;2.635616e+00;8.452939e-01;0.000000e+00;-3.540389e+02;2.257304e+01
3.370000e-01;6.100000e+01;2.281699e+00;8.673796e-01;0.000000e+00;-3.537866e+02;2.159640e+01
3.380000e-01;6.100000e+01;1.928042e+00;8.884867e-01;0.000000e+00;-3.535190e+02;2.061559e+01
3.390000e-01;6.100000e+01;1.574661e+00;9.086108e-01;0.000000e+00;-3.532360e+02;1.963062e+01
3.400000e-01;6.100000e+01;1.221570e+00;9.277479e-01;0.000000e+00;-3.529406e+02;1.864245e+01
3.410000e-01;6.100000e+01;8.687799e-01;9.458957e-01;0.000000e+00;-3.526354e+02;1.765394e+01
3.420000e-01;6.100000e+01;5.162995e-01;9.630558e-01;0.000000e+00;-3.523173e+02;1.666692e+01
3.430000e-01;6.100000e+01;1.641454e-01;9.792296e-01;0.000000e+00;-3.519831e+02;1.568136e+01
3.440000e-01;6.100000e+01;-1.876667e-01;9.944185e-01;0.000000e+00;-3.516330e+02;1.469725e+01
3.450000e-01;6.100000e+01;-5.391207e-01;1.008624e+00;0.000000e+00;-3.512670e+02;1.371459e+01
3.460000e-01;6.100000e+01;-8.902007e-01;1.021848e+00;0.000000e+00;-3.508850e+02;1.273339e+01
3.470000e-01;6.100000e+01;-1.240891e+00;1.034091e+00;0.000000e+00;-3.504870e+02;1.175365e+01
3.480000e-01;6.100000e+01;-1.591175e+00;1.045355e+00;0.000000e+00;-3.500731e+02;1.077535e+01
3.490000e-01;6.100000e+01;-1.941037e+00;1.055642e+00;0.000000e+00;-3.496432e+02;9.798516e+00
3.500000e-01;6.100000e+01;-2.290461e+00;1.064952e+00;0.000000e+00;-3.492003e+02;8.823150e+00
3.510000e-01;6.100000e+01;-2.639438e+00;1.073288e+00;0.000000e+00;-3.487471e+02;7.850519e+00
3.520000e-01;6.100000e+01;-2.987955e+00;1.080653e+00;0.000000e+00;-3.482805e+02;6.882470e+00
3.530000e-01;6.100000e+01;-3.335999e+00;1.087053e+00;0.000000e+00;-3.477975e+02;5.919609e+00
3.540000e-01;6.100000e+01;-3.683550e+00;1.092492e+00;0.000000e+00;-3.472980e+02;4.961936e+00
3.550000e-01;6.100000e+01;-4.030595e+00;1.096977e+00;0.000000e+00;-3.467822e+02;4.009450e+00
3.560000e-01;6.100000e+01;-4.377115e+00;1.100511e+00;0.000000e+00;-3.462500e+02;3.062152e+00
3.570000e-01;6.100000e+01;-4.723095e+00;1.103101e+00;0.000000e+00;-3.457014e+02;2.120041e+00
3.580000e-01;6.100000e+01;-5.068518e+00;1.104751e+00;0.000000e+00;-3.451363e+02;1.183117e+00
3.590000e-01;6.100000e+01;-5.413367e+00;1.105467e+00;0.000000e+00;-3.445549e+02;2.513813e-01
3.600000e-01;6.100000e+01;-5.757627e+00;1.105254e+00;0.000000e+00;-3.439601e+02;-6.757989e-01
3.610000e-01;6.100000e+01;-6.101287e+00;1.104116e+00;0.000000e+00;-3.433548e+02;-1.598524e+00
3.620000e-01;6.100000e+01;-6.444337e+00;1.102057e+00;0.000000e+00;-3.427356e+02;-2.515367e+00
3.630000e-01;6.100000e+01;-6.786759e+00;1.099085e+00;0.000000e+00;-3.420995e+02;-3.425431e+00
3.640000e-01;6.100000e+01;-7.128536e+00;1.095206e+00;0.000000e+00;-3.414463e+02;-4.328715e+00
3.650000e-01;6.100000e+01;-7.469651e+00;1.090427e+00;0.000000e+00;-3.407762e+02;-5.225219e+00
3.660000e-01;6.100000e+01;-7.810088e+00;1.084756e+00;0.000000e+00;-3.400890e+02;-6.114943e+00
3.670000e-01;6.100000e+01;-8.149829e+00;1.078198e+00;0.000000e+00;-3.393849e+02;-6.997888e+00
3.680000e-01;6.100000e+01;-8.488858e+00;1.070760e+00;0.000000e+00;-3.386638e+02;-7.874053e+00
3.690000e-01;6.100000e+01;-8.827157e+00;1.062449e+00;0.000000e+00;-3.379256e+02;-8.743438e+00
3.700000e-01;6.100000e+01;-9.164709e+00;1.053273e+00;0.000000e+00;-3.371737e+02;-9.606995e+00
3.710000e-01;6.100000e+01;-9.501504e+00;1.043235e+00;0.000000e+00;-3.364110e+02;-1.046582e+01
3.720000e-01;6.100000e+01;-9.837531e+00;1.032341e+00;0.000000e+00;-3.356344e+02;-1.131920e+01
3.730000e-01;6.100000e+01;-1.017277e+01;1.020597e+00;0.000000e+00;-3.348405e+02;-1.216624e+01
3.740000e-01;6.100000e+01;-1.050721e+01;1.008009e+00;0.000000e+00;-3.340294e+02;-1.300695e+01
3.750000e-01;6.100000e+01;-1.084083e+01;9.945832e-01;0.000000e+00;-3.332011e+02;-1.384132e+01
3.760000e-01;6.100000e+01;-1.117361e+01;9.803262e-01;0.000000e+00;-3.323556e+02;-1.466936e+01
3.770000e-01;6.100000e+01;-1.150554e+01;9.652444e-01;0.000000e+00;-3.314929e+02;-1.549107e+01
3.780000e-01;6.100000e+01;-1.183660e+01;9.493441e-01;0.000000e+00;-3.306129e+02;-1.630645e+01
3.790000e-01;6.100000e+01;-1.216677e+01;9.326315e-01;0.000000e+00;-3.297157e+02;-1.711549e+01
3.800000e-01;6.100000e+01;-1.249603e+01;9.151131e-01;0.000000e+00;-3.288044e+02;-1.791915e+01
3.810000e-01;6.100000e+01;-1.282438e+01;8.967932e-01;0.000000e+00;-3.278819e+02;-1.871907e+01
3.820000e-01;6.100000e+01;-1.315180e+01;8.776750e-01;0.000000e+00;-3.269450e+02;-1.951535e+01
3.830000e-01;6.100000e+01;-1.347827e+01;8.577625e-01;0.000000e+00;-3.259907e+02;-2.030742e+01
3.840000e-01;6.100000e+01;-1.380378e+01;8.370601e-01;0.000000e+00;-3.250190e+02;-2.109526e+01
3.850000e-01;6.100000e+01;-1.412831e+01;8.155720e-01;0.000000e+00;-3.240298e+02;-2.187887e+01
3.860000e-01;6.100000e+01;-1.445184e+01;7.933024e-01;0.000000e+00;-3.230233e+02;-2.265826e+01
3.870000e-01;6.100000e+01;-1.477435e+01;7.702555e-01;0.000000e+00;-3.219993e+02;-2.343342e+01
3.880000e-01;6.100000e+01;-1.509584e+01;7.464356e-01;0.000000e+00;-3.209578e+02;-2.420436e+01
3.890000e-01;6.100000e+01;-1.541627e+01;7.218468e-01;0.000000e+00;-3.198989e+02;-2.497108e+01
3.900000e-01;6.100000e+01;-1.573563e+01;6.964934e-01;0.000000e+00;-3.188258e+02;-2.573422e+01
3.910000e-01;6.100000e+01;-1.605392e+01;6.703783e-01;0.000000e+00;-3.177415e+02;-2.649550e+01
3.920000e-01;6.100000e+01;-1.637112e+01;6.435024e-01;0.000000e+00;-3.166427e+02;-2.725579e+01
3.930000e-01;6.100000e+01;-1.668721e+01;6.158667e-01;0.000000e+00;-3.155264e+02;-2.801496e+01
3.940000e-01;6.100000e+01;-1.700217e+01;5.874725e-01;0.000000e+00;-3.143925e+02;-2.877300e+01
3.950000e-01;6.100000e+01;-1.731599e+01;5.583207e-01;0.000000e+00;-3.132409e+02;-2.952993e+01
3.960000e-01;6.100000e+01;-1.762865e+01;5.284126e-01;0.000000e+00;-3.120718e+02;-3.028572e+01
3.970000e-01;6.100000e+01;-1.794013e+01;4.977493e-01;0.000000e+00;-3.108850e+02;-3.104040e+01
3.980000e-01;6.100000e+01;-1.825042e+01;4.663318e-01;0.000000e+00;-3.096807e+02;-3.179395e+01
3.990000e-01;6.100000e+01;-1.855949e+01;4.341614e-01;0.000000e+00;-3.084587e+02;-3.254637e+01
4.000000e-01;6.100000e+01;-1.886734e+01;4.012391e-01;0.000000e+00;-3.072225e+02;-3.329789e+01
4.010000e-01;6.100000e+01;-1.917394e+01;3.675656e-01;0.000000e+00;-3.059753e+02;-3.404980e+01
4.020000e-01;6.100000e+01;-1.947929e+01;3.331395e-01;0.000000e+00;-3.047139e+02;-3.480355e+01
4.030000e-01;6.100000e+01;-1.978337e+01;2.979585e-01;0.000000e+00;-3.034348e+02;-3.555946e+01
4.040000e-01;6.100000e+01;-2.008616e+01;2.620206e-01;0.000000e+00;-3.021381e+02;-3.631753e+01
4.050000e-01;6.100000e+01;-2.038764e+01;2.253235e-01;0.000000e+00;-3.008237e+02;-3.707777e+01
4.060000e-01;6.100000e+01;-2.068781e+01;1.878650e-01;0.000000e+00;-2.994918e+02;-3.784018e+01
4.070000e-01;6.100000e+01;-2.098663e+01;1.496431e-01;0.000000e+00;-2.981422e+02;-3.860475e+01
4.080000e-01;6.100000e+01;-2.128409e+01;1.106555e-01;0.000000e+00;-2.967751e+02;-3.937148e+01
4.090000e-01;6.100000e+01;-2.158018e+01;7.090016e-02;0.000000e+00;-2.953903e+02;-4.014038e+01
4.100000e-01;6.100000e+01;-2.187487e+01;3.037479e-02;0.000000e+00;-2.939912e+02;-4.091118e+01
4.110000e-01;6.100000e+01;-2.216816e+01;-1.092220e-02;0.000000e+00;-2.925813e+02;-4.168450e+01
4.120000e-01;6.100000e+01;-2.246003e+01;-5.299421e-02;0.000000e+00;-2.911573e+02;-4.246192e+01
4.130000e-01;6.100000e+01;-2.275047e+01;-9.584605e-02;0.000000e+00;-2.897158e+02;-4.324415e+01
4.140000e-01;6.100000e+01;-2.303947e+01;-1.394825e-01;0.000000e+00;-2.882570e+02;-4.403117e+01
4.150000e-01;6.100000e+01;-2.332699e+01;-1.839084e-01;0.000000e+00;-2.867808e+02;-4.482300e+01
4.160000e-01;6.100000e+01;-2.361303e+01;-2.291285e-01;0.000000e+00;-2.852871e+02;-4.561963e+01
4.170000e-01;6.100000e+01;-2.389756e+01;-2.751477e-01;0.000000e+00;-2.837761e+02;-4.642106e+01
4.180000e-01;6.100000e+01;-2.418058e+01;-3.219706e-01;0.000000e+00;-2.822476e+02;-4.722730e+01
4.190000e-01;6.100000e+01;-2.446206e+01;-3.696022e-01;0.000000e+00;-2.807018e+02;-4.803833e+01
4.200000e-01;6.100000e+01;-2.474198e+01;-4.180473e-01;0.000000e+00;-2.791416e+02;-4.885354e+01
4.210000e-01;6.100000e+01;-2.502034e+01;-4.673093e-01;0.000000e+00;-2.775705e+02;-4.967270e+01
4.220000e-01;6.100000e+01;-2.529712e+01;-5.173927e-01;0.000000e+00;-2.759855e+02;-5.049706e+01
4.230000e-01;6.100000e+01;-2.557231e+01;-5.683034e-01;0.000000e+00;-2.743835e+02;-5.132746e+01
4.240000e-01;6.100000e+01;-2.584589e+01;-6.200476e-01;0.000000e+00;-2.727646e+02;-5.216390e+01
4.250000e-01;6.100000e+01;-2.611784e+01;-6.726312e-01;0.000000e+00;-2.711287e+02;-5.300638e+01
4.260000e-01;6.100000e+01;-2.638815e+01;-7.260604e-01;0.000000e+00;-2.694758e+02;-5.385491e+01
4.270000e-01;6.100000e+01;-2.665679e+01;-7.803411e-01;0.000000e+00;-2.678059e+02;-5.470948e+01
4.280000e-01;6.100000e+01;-2.692376e+01;-8.354793e-01;0.000000e+00;-2.661191e+02;-5.557009e+01
4.290000e-01;6.100000e+01;-2.718903e+01;-8.914812e-01;0.000000e+00;-2.644153e+02;-5.643674e+01
4.300000e-01;6.100000e+01;-2.745259e+01;-9.483528e-01;0.000000e+00;-2.626977e+02;-5.730865e+01
4.310000e-01;6.100000e+01;-2.771443e+01;-1.006099e+00;0.000000e+00;-2.609694e+02;-5.818480e+01
4.320000e-01;6.100000e+01;-2.797453e+01;-1.064722e+00;0.000000e+00;-2.592275e+02;-5.906563e+01
4.330000e-01;6.100000e+01;-2.823288e+01;-1.124230e+00;0.000000e+00;-2.574690e+02;-5.995180e+01
4.340000e-01;6.100000e+01;-2.848947e+01;-1.184626e+00;0.000000e+00;-2.556939e+02;-6.084331e+01
4.350000e-01;6.100000e+01;-2.874427e+01;-1.245916e+00;0.000000e+00;-2.539021e+02;-6.174016e+01
4.360000e-01;6.100000e+01;-2.899727e+01;-1.308106e+00;0.000000e+00;-2.520937e+02;-6.264235e+01
4.370000e-01;6.100000e+01;-2.924846e+01;-1.371201e+00;-3.538040e-03;-2.502686e+02;-6.354988e+01
4.380000e-01;6.099999e+01;-2.949781e+01;-1.435206e+00;-9.551964e-02;-2.484269e+02;-6.446275e+01
4.390000e-01;6.099981e+01;-2.974531e+01;-1.500127e+00;-4.386136e-01;-2.465685e+02;-6.538096e+01
4.400000e-01;6.099912e+01;-2.999095e+01;-1.565968e+00;-1.117461e+00;-2.446966e+02;-6.630389e+01
4.410000e-01;6.099757e+01;-3.023470e+01;-1.632734e+00;-2.135069e+00;-2.428143e+02;-6.722997e+01
4.420000e-01;6.099485e+01;-3.047657e+01;-1.700428e+00;-3.490646e+00;-2.409191e+02;-6.815834e+01
4.430000e-01;6.099059e+01;-3.071654e+01;-1.769051e+00;-5.183134e+00;-2.390080e+02;-6.908913e+01
4.440000e-01;6.098448e+01;-3.095459e+01;-1.838606e+00;-7.211214e+00;-2.370812e+02;-7.002235e+01
4.450000e-01;6.097617e+01;-3.119070e+01;-1.909096e+00;-9.573304e+00;-2.351384e+02;-7.095800e+01
4.460000e-01;6.096533e+01;-3.142487e+01;-1.980522e+00;-1.226756e+01;-2.331799e+02;-7.189607e+01
4.470000e-01;6.095164e+01;-3.165706e+01;-2.052888e+00;-1.529189e+01;-2.312055e+02;-7.283657e+01
4.480000e-01;6.093475e+01;-3.188728e+01;-2.126195e+00;-1.864392e+01;-2.292153e+02;-7.377949e+01
4.490000e-01;6.091435e+01;-3.211549e+01;-2.200447e+00;-2.232105e+01;-2.272092e+02;-7.472484e+01
4.500000e-01;6.089011e+01;-3.234170e+01;-2.275645e+00;-2.632041e+01;-2.251901e+02;-7.567252e+01
4.510000e-01;6.086171e+01;-3.256587e+01;-2.351792e+00;-3.063887e+01;-2.231610e+02;-7.662076e+01
4.520000e-01;6.082883e+01;-3.278802e+01;-2.428887e+00;-3.527308e+01;-2.211194e+02;-7.756713e+01
4.530000e-01;6.079116e+01;-3.300811e+01;-2.506926e+00;-4.021942e+01;-2.190626e+02;-7.851086e+01
4.540000e-01;6.074839e+01;-3.322614e+01;-2.585908e+00;-4.547403e+01;-2.169908e+02;-7.945196e+01
4.550000e-01;6.070021e+01;-3.344210e+01;-2.665830e+00;-5.103281e+01;-2.149038e+02;-8.039042e+01
4.560000e-01;6.064632e+01;-3.365595e+01;-2.746689e+00;-5.689143e+01;-2.128017e+02;-8.132626e+01
4.570000e-01;6.058643e+01;-3.386770e+01;-2.828483e+00;-6.304532e+01;-2.106845e+02;-8.225947e+01
4.580000e-01;6.052023e+01;-3.407732e+01;-2.911208e+00;-6.948968e+01;-2.085521e+02;-8.319004e+01
4.590000e-01;6.044745e+01;-3.428480e+01;-2.994863e+00;-7.621949e+01;-2.064047e+02;-8.411799e+01
4.600000e-01;6.036779e+01;-3.449013e+01;-3.079444e+00;-8.322951e+01;-2.042449e+02;-8.504408e+01
4.610000e-01;6.028099e+01;-3.469329e+01;-3.164951e+00;-9.051425e+01;-2.020759e+02;-8.596684e+01
4.620000e-01;6.018677e+01;-3.489428e+01;-3.251378e+00;-9.806805e+01;-1.998953e+02;-8.688207e+01
4.630000e-01;6.008485e+01;-3.509308e+01;-3.338715e+00;-1.058850e+02;-1.977005e+02;-8.778784e+01
4.640000e-01;5.997500e+01;-3.528968e+01;-3.426953e+00;-1.139590e+02;-1.954915e+02;-8.868415e+01
4.650000e-01;5.985694e+01;-3.548407e+01;-3.516083e+00;-1.222838e+02;-1.932683e+02;-8.957101e+01
4.660000e-01;5.973043e+01;-3.567622e+01;-3.606095e+00;-1.308529e+02;-1.910308e+02;-9.044842e+01
4.670000e-01;5.959523e+01;-3.586613e+01;-3.696980e+00;-1.396596e+02;-1.887791e+02;-9.131638e+01
4.680000e-01;5.945111e+01;-3.605378e+01;-3.788728e+00;-1.486970e+02;-1.865132e+02;-9.217488e+01
4.690000e-01;5.929784e+01;-3.623915e+01;-3.881330e+00;-1.579581e+02;-1.842331e+02;-9.302393e+01
4.700000e-01;5.913519e+01;-3.642224e+01;-3.974776e+00;-1.674356e+02;-1.819413e+02;-9.386546e+01
4.710000e-01;5.896297e+01;-3.660304e+01;-4.069061e+00;-1.771223e+02;-1.796409e+02;-9.469877e+01
4.720000e-01;5.878095e+01;-3.678153e+01;-4.164174e+00;-1.870104e+02;-1.773299e+02;-9.551797e+01
4.730000e-01;5.858895e+01;-3.695770e+01;-4.260097e+00;-1.970923e+02;-1.750058e+02;-9.631982e+01
4.740000e-01;5.838676e+01;-3.713154e+01;-4.356813e+00;-2.073602e+02;-1.726686e+02;-9.710430e+01
4.750000e-01;5.817422e+01;-3.730303e+01;-4.454305e+00;-2.178061e+02;-1.703184e+02;-9.787143e+01
4.760000e-01;5.795115e+01;-3.747217e+01;-4.552556e+00;-2.284217e+02;-1.679552e+02;-9.862120e+01
4.770000e-01;5.771738e+01;-3.763894e+01;-4.651548e+00;-2.391989e+02;-1.655789e+02;-9.935362e+01
4.780000e-01;5.747275e+01;-3.780333e+01;-4.751263e+00;-2.501291e+02;-1.631896e+02;-1.000687e+02
4.790000e-01;5.721712e+01;-3.796532e+01;-4.851685e+00;-2.612040e+02;-1.607872e+02;-1.007664e+02
4.800000e-01;5.695035e+01;-3.812491e+01;-4.952796e+00;-2.724148e+02;-1.583741e+02;-1.014500e+02
4.810000e-01;5.667229e+01;-3.828207e+01;-5.054585e+00;-2.837528e+02;-1.559530e+02;-1.021200e+02
4.820000e-01;5.638284e+01;-3.843681e+01;-5.157036e+00;-2.952092e+02;-1.535222e+02;-1.027692e+02
4.830000e-01;5.608188e+01;-3.858912e+01;-5.260123e+00;-3.067750e+02;-1.510796e+02;-1.033928e+02
4.840000e-01;5.576929e+01;-3.873897e+01;-5.363822e+00;-3.184413e+02;-1.486251e+02;-1.039910e+02
4.850000e-01;5.544499e+01;-3.888637e+01;-5.468105e+00;-3.301988e+02;-1.461588e+02;-1.045636e+02
4.860000e-01;5.510889e+01;-3.903129e+01;-5.572949e+00;-3.420385e+02;-1.436807e+02;-1.051108e+02
4.870000e-01;5.476092e+01;-3.917373e+01;-5.678327e+00;-3.539512e+02;-1.411907e+02;-1.056324e+02
4.880000e-01;5.440099e+01;-3.931367e+01;-5.784214e+00;-3.659275e+02;-1.386889e+02;-1.061285e+02
4.890000e-01;5.402906e+01;-3.945111e+01;-5.890584e+00;-3.779580e+02;-1.361752e+02;-1.065991e+02
4.900000e-01;5.364507e+01;-3.958602e+01;-5.997412e+00;-3.900335e+02;-1.336519e+02;-1.070489e+02
4.910000e-01;5.324899e+01;-3.971841e+01;-6.104682e+00;-4.021445e+02;-1.311214e+02;-1.074798e+02
4.920000e-01;5.284079e+01;-3.984826e+01;-6.212372e+00;-4.142815e+02;-1.285824e+02;-1.078838e+02
4.930000e-01;5.242043e+01;-3.997557e+01;-6.320449e+00;-4.264352e+02;-1.260330e+02;-1.082548e+02
4.940000e-01;5.198792e+01;-4.010033e+01;-6.428881e+00;-4.385959e+02;-1.234731e+02;-1.085929e+02
4.950000e-01;5.154324e+01;-4.022252e+01;-6.537635e+00;-4.507542e+02;-1.209027e+02;-1.088980e+02
4.960000e-01;5.108641e+01;-4.034214e+01;-6.646677e+00;-4.629008e+02;-1.183218e+02;-1.091703e+02
4.970000e-01;5.061744e+01;-4.045916e+01;-6.755976e+00;-4.750259e+02;-1.157305e+02;-1.094097e+02
4.980000e-01;5.013636e+01;-4.057360e+01;-6.865497e+00;-4.871204e+02;-1.131287e+02;-1.096161e+02
4.990000e-01;4.964320e+01;-4.068542e+01;-6.975208e+00;-4.991746e+02;-1.105164e+02;-1.097897e+02
5.000000e-01;4.913801e+01;-4.079463e+01;-7.085076e+00;-5.111792e+02;-1.078956e+02;-1.099361e+02
5.010000e-01;4.862084e+01;-4.090121e+01;-7.195080e+00;-5.231248e+02;-1.052687e+02;-1.100594e+02
5.020000e-01;4.809176e+01;-4.100517e+01;-7.305195e+00;-5.350021e+02;-1.026345e+02;-1.101508e+02
5.030000e-01;4.755083e+01;-4.110648e+01;-7.415382e+00;-5.468019e+02;-9.999124e+01;-1.102034e+02
5.040000e-01;4.699815e+01;-4.120515e+01;-7.525602e+00;-5.585150e+02;-9.733903e+01;-1.102174e+02
5.050000e-01;4.643380e+01;-4.130116e+01;-7.635816e+00;-5.701321e+02;-9.467784e+01;-1.101927e+02
5.060000e-01;4.585789e+01;-4.139450e+01;-7.745987e+00;-5.816444e+02;-9.200765e+01;-1.101293e+02
5.070000e-01;4.527052e+01;-4.148517e+01;-7.856075e+00;-5.930427e+02;-8.932848e+01;-1.100271e+02
5.080000e-01;4.467180e+01;-4.157316e+01;-7.966041e+00;-6.043182e+02;-8.664033e+01;-1.098863e+02
5.090000e-01;4.406188e+01;-4.165846e+01;-8.075848e+00;-6.154621e+02;-8.394318e+01;-1.097068e+02
5.100000e-01;4.344088e+01;-4.174105e+01;-8.185455e+00;-6.264657e+02;-8.123873e+01;-1.094954e+02
5.110000e-01;4.280895e+01;-4.182093e+01;-8.294838e+00;-6.373205e+02;-7.852919e+01;-1.092577e+02
5.120000e-01;4.216624e+01;-4.189811e+01;-8.403970e+00;-6.480179e+02;-7.581368e+01;-1.089853e+02
5.130000e-01;4.151291e+01;-4.197256e+01;-8.512809e+00;-6.585497e+02;-7.309080e+01;-1.086708e+02
5.140000e-01;4.084914e+01;-4.204429e+01;-8.621312e+00;-6.689076e+02;-7.036054e+01;-1.083143e+02
5.150000e-01;4.017510e+01;-4.211328e+01;-8.729438e+00;-6.790835e+02;-6.762291e+01;-1.079157e+02
5.160000e-01;3.949097e+01;-4.217953e+01;-8.837143e+00;-6.890695e+02;-6.487791e+01;-1.074751e+02
5.170000e-01;3.879696e+01;-4.224304e+01;-8.944388e+00;-6.988578e+02;-6.212554e+01;-1.069924e+02
5.180000e-01;3.809326e+01;-4.230378e+01;-9.051128e+00;-7.084409e+02;-5.936579e+01;-1.064677e+02
5.190000e-01;3.738008e+01;-4.236177e+01;-9.157323e+00;-7.178111e+02;-5.659867e+01;-1.059009e+02
5.200000e-01;3.665763e+01;-4.241698e+01;-9.262930e+00;-7.269612e+02;-5.382559e+01;-1.052995e+02
5.210000e-01;3.592615e+01;-4.246942e+01;-9.367922e+00;-7.358841e+02;-5.104854e+01;-1.046706e+02
5.220000e-01;3.518587e+01;-4.251908e+01;-9.472271e+00;-7.445729e+02;-4.826694e+01;-1.040066e+02
5.230000e-01;3.443701e+01;-4.256595e+01;-9.575935e+00;-7.530206e+02;-4.547965e+01;-1.033000e+02
5.240000e-01;3.367982e+01;-4.261004e+01;-9.678871e+00;-7.612208e+02;-4.268667e+01;-1.025509e+02
5.250000e-01;3.291457e+01;-4.265133e+01;-9.781037e+00;-7.691671e+02;-3.988799e+01;-1.017592e+02
5.260000e-01;3.214149e+01;-4.268981e+01;-9.882390e+00;-7.768532e+02;-3.708363e+01;-1.009250e+02
5.270000e-01;3.136086e+01;-4.272549e+01;-9.982887e+00;-7.842732e+02;-3.427357e+01;-1.000482e+02
5.280000e-01;3.057294e+01;-4.275836e+01;-1.008249e+01;-7.914213e+02;-3.145782e+01;-9.912887e+01
5.290000e-01;2.977802e+01;-4.278841e+01;-1.018114e+01;-7.982919e+02;-2.863638e+01;-9.816697e+01
5.300000e-01;2.897636e+01;-4.281563e+01;-1.027882e+01;-8.048796e+02;-2.581028e+01;-9.716994e+01
5.310000e-01;2.816826e+01;-4.284003e+01;-1.037548e+01;-8.111794e+02;-2.298118e+01;-9.614613e+01
5.320000e-01;2.735400e+01;-4.286160e+01;-1.047111e+01;-8.171862e+02;-2.014899e+01;-9.508952e+01
5.330000e-01;2.653389e+01;-4.288033e+01;-1.056566e+01;-8.228955e+02;-1.731302e+01;-9.399314e+01
5.340000e-01;2.570821e+01;-4.289622e+01;-1.065910e+01;-8.283027e+02;-1.447325e+01;-9.285699e+01
5.350000e-01;2.487728e+01;-4.290928e+01;-1.075138e+01;-8.334036e+02;-1.162969e+01;-9.168107e+01
5.360000e-01;2.404140e+01;-4.291948e+01;-1.084246e+01;-8.381944e+02;-8.782343e+00;-9.046538e+01
5.370000e-01;2.320089e+01;-4.292684e+01;-1.093231e+01;-8.426712e+02;-5.931202e+00;-8.920993e+01
5.380000e-01;2.235606e+01;-4.293134e+01;-1.102088e+01;-8.468305e+02;-3.076270e+00;-8.791471e+01
5.390000e-01;2.150723e+01;-4.293299e+01;-1.110814e+01;-8.506691e+02;-2.175463e-01;-8.657973e+01
5.400000e-01;2.065472e+01;-4.293178e+01;-1.119404e+01;-8.541840e+02;2.644283e+00;-8.521177e+01
5.410000e-01;1.979886e+01;-4.292770e+01;-1.127856e+01;-8.573725e+02;5.507944e+00;-8.381957e+01
5.420000e-01;1.893998e+01;-4.292076e+01;-1.136168e+01;-8.602321e+02;8.373242e+00;-8.239919e+01
5.430000e-01;1.807840e+01;-4.291096e+01;-1.144336e+01;-8.627605e+02;1.124057e+01;-8.094481e+01
5.440000e-01;1.721446e+01;-4.289828e+01;-1.152357e+01;-8.649558e+02;1.410993e+01;-7.945642e+01
5.450000e-01;1.634849e+01;-4.288274e+01;-1.160227e+01;-8.668163e+02;1.698132e+01;-7.793403e+01
5.460000e-01;1.548082e+01;-4.286432e+01;-1.167944e+01;-8.683404e+02;1.985475e+01;-7.637763e+01
5.470000e-01;1.461181e+01;-4.284303e+01;-1.175503e+01;-8.695271e+02;2.273020e+01;-7.478722e+01
5.480000e-01;1.374177e+01;-4.281886e+01;-1.182901e+01;-8.703755e+02;2.560768e+01;-7.316280e+01
5.490000e-01;1.287105e+01;-4.279181e+01;-1.190135e+01;-8.708847e+02;2.848720e+01;-7.150437e+01
5.500000e-01;1.200000e+01;-4.276189e+01;-1.197202e+01;-8.710545e+02;3.136838e+01;-6.981778e+01
5.510000e-01;1.112895e+01;-4.272908e+01;-1.204099e+01;-8.708847e+02;3.425018e+01;-6.811161e+01
5.520000e-01;1.025823e+01;-4.269338e+01;-1.210824e+01;-8.703755e+02;3.713196e+01;-6.638414e+01
5.530000e-01;9.388195e+00;-4.265481e+01;-1.217376e+01;-8.695271e+02;4.001376e+01;-6.463089e+01
5.540000e-01;8.519176e+00;-4.261336e+01;-1.223751e+01;-8.683404e+02;4.289557e+01;-6.285188e+01
5.550000e-01;7.651514e+00;-4.256902e+01;-1.229946e+01;-8.668163e+02;4.577740e+01;-6.104709e+01
5.560000e-01;6.785544e+00;-4.252180e+01;-1.235960e+01;-8.649558e+02;4.865924e+01;-5.921653e+01
5.570000e-01;5.921602e+00;-4.247170e+01;-1.241789e+01;-8.627605e+02;5.154110e+01;-5.736019e+01
5.580000e-01;5.060023e+00;-4.241872e+01;-1.247432e+01;-8.602321e+02;5.442296e+01;-5.547809e+01
5.590000e-01;4.201138e+00;-4.236286e+01;-1.252885e+01;-8.573725e+02;5.730485e+01;-5.357021e+01
5.600000e-01;3.345278e+00;-4.230411e+01;-1.258146e+01;-8.541840e+02;6.018680e+01;-5.164105e+01
5.610000e-01;2.492770e+00;-4.224248e+01;-1.263213e+01;-8.506691e+02;6.306824e+01;-4.969848e+01
5.620000e-01;1.643940e+00;-4.217797e+01;-1.268086e+01;-8.468305e+02;6.594817e+01;-4.774310e+01
5.630000e-01;7.991090e-01;-4.211059e+01;-1.272762e+01;-8.426712e+02;6.882622e+01;-4.577212e+01
5.640000e-01;-4.140272e-02;-4.204032e+01;-1.277240e+01;-8.381944e+02;7.170240e+01;-4.378555e+01
5.650000e-01;-8.772798e-01;-4.196718e+01;-1.281519e+01;-8.334036e+02;7.457669e+01;-4.178338e+01
5.660000e-01;-1.708210e+00;-4.189117e+01;-1.285597e+01;-8.283027e+02;7.744910e+01;-3.976562e+01
5.670000e-01;-2.533885e+00;-4.181228e+01;-1.289472e+01;-8.228955e+02;8.031963e+01;-3.773226e+01
5.680000e-01;-3.354001e+00;-4.173053e+01;-1.293143e+01;-8.171862e+02;8.318828e+01;-3.568331e+01
5.690000e-01;-4.168257e+00;-4.164591e+01;-1.296609e+01;-8.111794e+02;8.605505e+01;-3.361876e+01
5.700000e-01;-4.976360e+00;-4.155842e+01;-1.299867e+01;-8.048796e+02;8.892028e+01;-3.154133e+01
5.710000e-01;-5.778017e+00;-4.146807e+01;-1.302917e+01;-7.982919e+02;9.178367e+01;-2.945746e+01
5.720000e-01;-6.572943e+00;-4.137485e+01;-1.305758e+01;-7.914213e+02;9.464389e+01;-2.736999e+01
5.730000e-01;-7.360859e+00;-4.127878e+01;-1.308391e+01;-7.842732e+02;9.750026e+01;-2.527806e+01
5.740000e-01;-8.141490e+00;-4.117985e+01;-1.310814e+01;-7.768532e+02;1.003528e+02;-2.318168e+01
5.750000e-01;-8.914566e+00;-4.107807e+01;-1.313027e+01;-7.691671e+02;1.032015e+02;-2.108083e+01
5.760000e-01;-9.679824e+00;-4.097345e+01;-1.315030e+01;-7.612208e+02;1.060463e+02;-1.897553e+01
5.770000e-01;-1.043701e+01;-4.086598e+01;-1.316822e+01;-7.530206e+02;1.088873e+02;-1.686577e+01
5.780000e-01;-1.118587e+01;-4.075567e+01;-1.318403e+01;-7.445729e+02;1.117244e+02;-1.475155e+01
5.790000e-01;-1.192615e+01;-4.064253e+01;-1.319773e+01;-7.358841e+02;1.145577e+02;-1.263287e+01
5.800000e-01;-1.265763e+01;-4.052656e+01;-1.320930e+01;-7.269612e+02;1.173879e+02;-1.051046e+01
5.810000e-01;-1.338008e+01;-4.040776e+01;-1.321875e+01;-7.178111e+02;1.202149e+02;-8.388773e+00
5.820000e-01;-1.409326e+01;-4.028613e+01;-1.322608e+01;-7.084409e+02;1.230371e+02;-6.272694e+00
5.830000e-01;-1.479696e+01;-4.016168e+01;-1.323129e+01;-6.988578e+02;1.258536e+02;-4.163370e+00
5.840000e-01;-1.549097e+01;-4.003442e+01;-1.323440e+01;-6.890695e+02;1.286643e+02;-2.060799e+00
5.850000e-01;-1.617510e+01;-3.990435e+01;-1.323542e+01;-6.790835e+02;1.314692e+02;3.501680e-02
5.860000e-01;-1.684914e+01;-3.977148e+01;-1.323433e+01;-6.689076e+02;1.342683e+02;2.124079e+00
5.870000e-01;-1.751291e+01;-3.963582e+01;-1.323117e+01;-6.585497e+02;1.370616e+02;4.206386e+00
5.880000e-01;-1.816624e+01;-3.949736e+01;-1.322592e+01;-6.480179e+02;1.398492e+02;6.281940e+00
5.890000e-01;-1.880895e+01;-3.935612e+01;-1.321860e+01;-6.373205e+02;1.426309e+02;8.350739e+00
5.900000e-01;-1.944088e+01;-3.921210e+01;-1.320922e+01;-6.264657e+02;1.454081e+02;1.041394e+01
5.910000e-01;-2.006188e+01;-3.906530e+01;-1.319778e+01;-6.154621e+02;1.481811e+02;1.246934e+01
5.920000e-01;-2.067180e+01;-3.891574e+01;-1.318428e+01;-6.043182e+02;1.509478e+02;1.451070e+01
5.930000e-01;-2.127052e+01;-3.876341e+01;-1.316875e+01;-5.930427e+02;1.537067e+02;1.653519e+01
5.940000e-01;-2.185789e+01;-3.860832e+01;-1.315121e+01;-5.816444e+02;1.564577e+02;1.854279e+01
5.950000e-01;-2.243380e+01;-3.845049e+01;-1.313167e+01;-5.701321e+02;1.592009e+02;2.053352e+01
5.960000e-01;-2.299815e+01;-3.828992e+01;-1.311014e+01;-5.585150e+02;1.619363e+02;2.250736e+01
5.970000e-01;-2.355083e+01;-3.812662e+01;-1.308665e+01;-5.468019e+02;1.646638e+02;2.446433e+01
5.980000e-01;-2.409176e+01;-3.796059e+01;-1.306122e+01;-5.350021e+02;1.673835e+02;2.640442e+01
5.990000e-01;-2.462084e+01;-3.779185e+01;-1.303385e+01;-5.231248e+02;1.700954e+02;2.832763e+01
6.000000e-01;-2.513801e+01;-3.762040e+01;-1.300456e+01;-5.111792e+02;1.728009e+02;3.023681e+01
6.010000e-01;-2.564320e+01;-3.744625e+01;-1.297337e+01;-4.991746e+02;1.755010e+02;3.213195e+01
6.020000e-01;-2.613636e+01;-3.726940e+01;-1.294030e+01;-4.871204e+02;1.781932e+02;3.400590e+01
6.030000e-01;-2.661744e+01;-3.708986e+01;-1.290536e+01;-4.750259e+02;1.808759e+02;3.585437e+01
6.040000e-01;-2.708641e+01;-3.690765e+01;-1.286859e+01;-4.629008e+02;1.835491e+02;3.767737e+01
6.050000e-01;-2.754324e+01;-3.672276e+01;-1.283000e+01;-4.507542e+02;1.862128e+02;3.947490e+01
6.060000e-01;-2.798792e+01;-3.653522e+01;-1.278964e+01;-4.385959e+02;1.888669e+02;4.124695e+01
6.070000e-01;-2.842043e+01;-3.634503e+01;-1.274751e+01;-4.264352e+02;1.915114e+02;4.299353e+01
6.080000e-01;-2.884079e+01;-3.615220e+01;-1.270365e+01;-4.142815e+02;1.941465e+02;4.471463e+01
6.090000e-01;-2.924899e+01;-3.595674e+01;-1.265808e+01;-4.021445e+02;1.967720e+02;4.641026e+01
6.100000e-01;-2.964507e+01;-3.575866e+01;-1.261083e+01;-3.900335e+02;1.993896e+02;4.808480e+01
6.110000e-01;-3.002906e+01;-3.555796e+01;-1.256191e+01;-3.779580e+02;2.020006e+02;4.974054e+01
6.120000e-01;-3.040099e+01;-3.535465e+01;-1.251135e+01;-3.659275e+02;2.046021e+02;5.136997e+01
6.130000e-01;-3.076092e+01;-3.514875e+01;-1.245917e+01;-3.539512e+02;2.071921e+02;5.296768e+01
6.140000e-01;-3.110889e+01;-3.494027e+01;-1.240541e+01;-3.420385e+02;2.097706e+02;5.453366e+01
6.150000e-01;-3.144499e+01;-3.472921e+01;-1.235010e+01;-3.301988e+02;2.123377e+02;5.606791e+01
6.160000e-01;-3.176929e+01;-3.451560e+01;-1.229328e+01;-3.184413e+02;2.148933e+02;5.757044e+01
6.170000e-01;-3.208188e+01;-3.429943e+01;-1.223496e+01;-3.067750e+02;2.174374e+02;5.904123e+01
6.180000e-01;-3.238284e+01;-3.408072e+01;-1.217520e+01;-2.952092e+02;2.199701e+02;6.048030e+01
6.190000e-01;-3.267229e+01;-3.385949e+01;-1.211400e+01;-2.837528e+02;2.224912e+02;6.188763e+01
6.200000e-01;-3.295035e+01;-3.363574e+01;-1.205142e+01;-2.724148e+02;2.250031e+02;6.326876e+01
6.210000e-01;-3.321712e+01;-3.340948e+01;-1.198747e+01;-2.612040e+02;2.275072e+02;6.462794e+01
6.220000e-01;-3.347275e+01;-3.318072e+01;-1.192216e+01;-2.501291e+02;2.300006e+02;6.595775e+01
6.230000e-01;-3.371738e+01;-3.294948e+01;-1.185555e+01;-2.391989e+02;2.324808e+02;6.725205e+01
6.240000e-01;-3.395115e+01;-3.271576e+01;-1.178766e+01;-2.284217e+02;2.349479e+02;6.851082e+01
6.250000e-01;-3.417422e+01;-3.247958e+01;-1.171853e+01;-2.178061e+02;2.374018e+02;6.973408e+01
6.260000e-01;-3.438676e+01;-3.224096e+01;-1.164819e+01;-2.073602e+02;2.398426e+02;7.092181e+01
6.270000e-01;-3.458895e+01;-3.199990e+01;-1.157669e+01;-1.970923e+02;2.422702e+02;7.207403e+01
6.280000e-01;-3.478095e+01;-3.175642e+01;-1.150404e+01;-1.870104e+02;2.446846e+02;7.319073e+01
6.290000e-01;-3.496297e+01;-3.151053e+01;-1.143030e+01;-1.771223e+02;2.470858e+02;7.427191e+01
6.300000e-01;-3.513519e+01;-3.126225e+01;-1.135550e+01;-1.674356e+02;2.494763e+02;7.532384e+01
6.310000e-01;-3.529784e+01;-3.101158e+01;-1.127966e+01;-1.579581e+02;2.518578e+02;7.635242e+01
6.320000e-01;-3.545111e+01;-3.075853e+01;-1.120280e+01;-1.486970e+02;2.542272e+02;7.735077e+01
6.330000e-01;-3.559523e+01;-3.050312e+01;-1.112495e+01;-1.396596e+02;2.565819e+02;7.831244e+01
6.340000e-01;-3.573043e+01;-3.024537e+01;-1.104617e+01;-1.308529e+02;2.589217e+02;7.923743e+01
6.350000e-01;-3.585694e+01;-2.998528e+01;-1.096648e+01;-1.222838e+02;2.612468e+02;8.012574e+01
6.360000e-01;-3.597500e+01;-2.972287e+01;-1.088592e+01;-1.139590e+02;2.635571e+02;8.097736e+01
6.370000e-01;-3.608485e+01;-2.945816e+01;-1.080452e+01;-1.058850e+02;2.658526e+02;8.179229e+01
6.380000e-01;-3.618677e+01;-2.919117e+01;-1.072233e+01;-9.806805e+01;2.681333e+02;8.257054e+01
6.390000e-01;-3.628099e+01;-2.892190e+01;-1.063938e+01;-9.051425e+01;2.703993e+02;8.331211e+01
6.400000e-01;-3.636779e+01;-2.865037e+01;-1.055571e+01;-8.322951e+01;2.726532e+02;8.402342e+01
6.410000e-01;-3.644745e+01;-2.837659e+01;-1.047134e+01;-7.621949e+01;2.748973e+02;8.471131e+01
6.420000e-01;-3.652023e+01;-2.810057e+01;-1.038629e+01;-6.948968e+01;2.771281e+02;8.536996e+01
6.430000e-01;-3.658643e+01;-2.782234e+01;-1.030060e+01;-6.304532e+01;2.793424e+02;8.599315e+01
6.440000e-01;-3.664632e+01;-2.754189e+01;-1.021430e+01;-5.689143e+01;2.815404e+02;8.658088e+01
6.450000e-01;-3.670021e+01;-2.725925e+01;-1.012744e+01;-5.103281e+01;2.837220e+02;8.713314e+01
6.460000e-01;-3.674839e+01;-2.697445e+01;-1.004003e+01;-4.547403e+01;2.858873e+02;8.764995e+01
6.470000e-01;-3.679116e+01;-2.668748e+01;-9.952135e+00;-4.021942e+01;2.880362e+02;8.813129e+01
6.480000e-01;-3.682883e+01;-2.639837e+01;-9.863772e+00;-3.527308e+01;2.901686e+02;8.857718e+01
6.490000e-01;-3.686171e+01;-2.610714e+01;-9.774981e+00;-3.063887e+01;2.922848e+02;8.898760e+01
6.500000e-01;-3.689011e+01;-2.581380e+01;-9.685797e+00;-2.632041e+01;2.943876e+02;8.936880e+01
6.510000e-01;-3.691435e+01;-2.551837e+01;-9.596243e+00;-2.232105e+01;2.964797e+02;8.972800e+01
6.520000e-01;-3.693475e+01;-2.522084e+01;-9.506341e+00;-1.864392e+01;2.985574e+02;9.006045e+01
6.530000e-01;-3.695164e+01;-2.492125e+01;-9.416122e+00;-1.529189e+01;3.006174e+02;9.036041e+01
6.540000e-01;-3.696533e+01;-2.461961e+01;-9.325620e+00;-1.226756e+01;3.026597e+02;9.062789e+01
6.550000e-01;-3.697617e+01;-2.431593e+01;-9.234867e+00;-9.573304e+00;3.046842e+02;9.086286e+01
6.560000e-01;-3.698448e+01;-2.401024e+01;-9.143894e+00;-7.211214e+00;3.066911e+02;9.106535e+01
6.570000e-01;-3.699059e+01;-2.370255e+01;-9.052736e+00;-5.183134e+00;3.086802e+02;9.123535e+01
6.580000e-01;-3.699485e+01;-2.339288e+01;-8.961424e+00;-3.490646e+00;3.106516e+02;9.137286e+01
6.590000e-01;-3.699757e+01;-2.308125e+01;-8.869990e+00;-2.135069e+00;3.126053e+02;9.147787e+01
6.600000e-01;-3.699912e+01;-2.276767e+01;-8.778468e+00;-1.117461e+00;3.145446e+02;9.155622e+01
6.610000e-01;-3.699981e+01;-2.245216e+01;-8.686878e+00;-4.386136e-01;3.164724e+02;9.161517e+01
6.620000e-01;-3.699999e+01;-2.213473e+01;-8.595238e+00;-9.551964e-02;3.183846e+02;9.165105e+01
6.630000e-01;-3.700000e+01;-2.181539e+01;-8.503576e+00;-3.538040e-03;3.202779e+02;9.165876e+01
6.640000e-01;-3.700000e+01;-2.149417e+01;-8.411920e+00;0.000000e+00;3.221521e+02;9.163830e+01
6.650000e-01;-3.700000e+01;-2.117109e+01;-8.320299e+00;0.000000e+00;3.240074e+02;9.158968e+01
6.660000e-01;-3.700000e+01;-2.084615e+01;-8.228741e+00;0.000000e+00;3.258437e+02;9.151288e+01
6.670000e-01;-3.700000e+01;-2.051940e+01;-8.137273e+00;0.000000e+00;3.276610e+02;9.140792e+01
6.680000e-01;-3.700000e+01;-2.019083e+01;-8.045925e+00;0.000000e+00;3.294593e+02;9.127478e+01
6.690000e-01;-3.700000e+01;-1.986048e+01;-7.954724e+00;0.000000e+00;3.312386e+02;9.111348e+01
6.700000e-01;-3.700000e+01;-1.952836e+01;-7.863698e+00;0.000000e+00;3.330025e+02;9.092912e+01
6.710000e-01;-3.700000e+01;-1.919447e+01;-7.772866e+00;0.000000e+00;3.347540e+02;9.072848e+01
6.720000e-01;-3.700000e+01;-1.885885e+01;-7.682241e+00;0.000000e+00;3.364891e+02;9.050894e+01
6.730000e-01;-3.700000e+01;-1.852150e+01;-7.591848e+00;0.000000e+00;3.382042e+02;9.026623e+01
6.740000e-01;-3.700000e+01;-1.818244e+01;-7.501709e+00;0.000000e+00;3.398993e+02;9.000035e+01
6.750000e-01;-3.700000e+01;-1.784170e+01;-7.411847e+00;0.000000e+00;3.415744e+02;8.971129e+01
6.760000e-01;-3.700000e+01;-1.749929e+01;-7.322286e+00;0.000000e+00;3.432294e+02;8.939906e+01
6.770000e-01;-3.700000e+01;-1.715524e+01;-7.233049e+00;0.000000e+00;3.448644e+02;8.906366e+01
6.780000e-01;-3.700000e+01;-1.680956e+01;-7.144159e+00;0.000000e+00;3.464794e+02;8.870509e+01
6.790000e-01;-3.700000e+01;-1.646228e+01;-7.055639e+00;0.000000e+00;3.480744e+02;8.832334e+01
6.800000e-01;-3.700000e+01;-1.611341e+01;-6.967512e+00;0.000000e+00;3.496531e+02;8.792268e+01
6.810000e-01;-3.700000e+01;-1.576297e+01;-6.879793e+00;0.000000e+00;3.512187e+02;8.750909e+01
6.820000e-01;-3.700000e+01;-1.541098e+01;-6.792494e+00;0.000000e+00;3.527673e+02;8.708084e+01
6.830000e-01;-3.700000e+01;-1.505744e+01;-6.705632e+00;0.000000e+00;3.542948e+02;8.663452e+01
6.840000e-01;-3.700000e+01;-1.470239e+01;-6.619225e+00;0.000000e+00;3.558013e+02;8.617014e+01
6.850000e-01;-3.700000e+01;-1.434584e+01;-6.533291e+00;0.000000e+00;3.572868e+02;8.568768e+01
6.860000e-01;-3.700000e+01;-1.398781e+01;-6.447849e+00;0.000000e+00;3.587514e+02;8.518715e+01
6.870000e-01;-3.700000e+01;-1.362833e+01;-6.362917e+00;0.000000e+00;3.601949e+02;8.466856e+01
6.880000e-01;-3.700000e+01;-1.326742e+01;-6.278512e+00;0.000000e+00;3.616175e+02;8.413189e+01
6.890000e-01;-3.700000e+01;-1.290510e+01;-6.194653e+00;0.000000e+00;3.630191e+02;8.357715e+01
6.900000e-01;-3.700000e+01;-1.254138e+01;-6.111358e+00;0.000000e+00;3.644035e+02;8.300774e+01
6.910000e-01;-3.700000e+01;-1.217629e+01;-6.028638e+00;0.000000e+00;3.657745e+02;8.242862e+01
6.920000e-01;-3.700000e+01;-1.180984e+01;-5.946501e+00;0.000000e+00;3.671277e+02;8.183875e+01
6.930000e-01;-3.700000e+01;-1.144204e+01;-5.864960e+00;0.000000e+00;3.684592e+02;8.123554e+01
6.940000e-01;-3.700000e+01;-1.107292e+01;-5.784030e+00;0.000000e+00;3.697690e+02;8.061898e+01
6.950000e-01;-3.700000e+01;-1.070250e+01;-5.703722e+00;0.000000e+00;3.710571e+02;7.998908e+01
6.960000e-01;-3.700000e+01;-1.033080e+01;-5.624052e+00;0.000000e+00;3.723236e+02;7.934583e+01
6.970000e-01;-3.700000e+01;-9.957851e+00;-5.545031e+00;0.000000e+00;3.735683e+02;7.868924e+01
6.980000e-01;-3.700000e+01;-9.583666e+00;-5.466673e+00;0.000000e+00;3.747913e+02;7.801931e+01
6.990000e-01;-3.700000e+01;-9.208268e+00;-5.388992e+00;0.000000e+00;3.759926e+02;7.733602e+01
7.000000e-01;-3.700000e+01;-8.831681e+00;-5.312001e+00;0.000000e+00;3.771763e+02;7.664196e+01
7.010000e-01;-3.700000e+01;-8.453916e+00;-5.235708e+00;0.000000e+00;3.783461e+02;7.594103e+01
7.020000e-01;-3.700000e+01;-8.074988e+00;-5.160119e+00;0.000000e+00;3.794977e+02;7.523270e+01
7.030000e-01;-3.700000e+01;-7.694920e+00;-5.085243e+00;0.000000e+00;3.806270e+02;7.451508e+01
7.040000e-01;-3.700000e+01;-7.313734e+00;-5.011089e+00;0.000000e+00;3.817340e+02;7.378817e+01
7.050000e-01;-3.700000e+01;-6.931453e+00;-4.937666e+00;0.000000e+00;3.828186e+02;7.305197e+01
7.060000e-01;-3.700000e+01;-6.548097e+00;-4.864985e+00;0.000000e+00;3.838808e+02;7.230647e+01
7.070000e-01;-3.700000e+01;-6.163691e+00;-4.793053e+00;0.000000e+00;3.849206e+02;7.155168e+01
7.080000e-01;-3.700000e+01;-5.778256e+00;-4.721881e+00;0.000000e+00;3.859382e+02;7.078760e+01
7.090000e-01;-3.700000e+01;-5.391815e+00;-4.651478e+00;0.000000e+00;3.869333e+02;7.001423e+01
7.100000e-01;-3.700000e+01;-5.004389e+00;-4.581853e+00;0.000000e+00;3.879102e+02;6.923339e+01
7.110000e-01;-3.700000e+01;-4.615994e+00;-4.513011e+00;0.000000e+00;3.888730e+02;6.844798e+01
7.120000e-01;-3.700000e+01;-4.226643e+00;-4.444957e+00;0.000000e+00;3.898172e+02;6.765779e+01
7.130000e-01;-3.700000e+01;-3.836360e+00;-4.377696e+00;0.000000e+00;3.907389e+02;6.686155e+01
7.140000e-01;-3.700000e+01;-3.445166e+00;-4.311234e+00;0.000000e+00;3.916379e+02;6.605926e+01
7.150000e-01;-3.700000e+01;-3.053084e+00;-4.245577e+00;0.000000e+00;3.925143e+02;6.525091e+01
7.160000e-01;-3.700000e+01;-2.660137e+00;-4.180732e+00;0.000000e+00;3.933680e+02;6.443651e+01
7.170000e-01;-3.700000e+01;-2.266348e+00;-4.116704e+00;0.000000e+00;3.941992e+02;6.361606e+01
7.180000e-01;-3.700000e+01;-1.871739e+00;-4.053500e+00;0.000000e+00;3.950077e+02;6.278955e+01
7.190000e-01;-3.700000e+01;-1.476332e+00;-3.991125e+00;0.000000e+00;3.957936e+02;6.195699e+01
7.200000e-01;-3.700000e+01;-1.080152e+00;-3.929586e+00;0.000000e+00;3.965610e+02;6.111959e+01
7.210000e-01;-3.700000e+01;-6.832105e-01;-3.868886e+00;0.000000e+00;3.973139e+02;6.027935e+01
7.220000e-01;-3.700000e+01;-2.855238e-01;-3.809027e+00;0.000000e+00;3.980480e+02;5.943630e+01
7.230000e-01;-3.700000e+01;1.128856e-01;-3.750013e+00;0.000000e+00;3.987593e+02;5.858963e+01
7.240000e-01;-3.700000e+01;5.119948e-01;-3.691848e+00;0.000000e+00;3.994476e+02;5.773935e+01
7.250000e-01;-3.700000e+01;9.117808e-01;-3.634535e+00;0.000000e+00;4.001131e+02;5.688546e+01
7.260000e-01;-3.700000e+01;1.312221e+00;-3.578077e+00;0.000000e+00;4.007557e+02;5.602795e+01
7.270000e-01;-3.700000e+01;1.713292e+00;-3.522479e+00;0.000000e+00;4.013754e+02;5.516682e+01
7.280000e-01;-3.700000e+01;2.114972e+00;-3.467743e+00;0.000000e+00;4.019722e+02;5.430209e+01
7.290000e-01;-3.700000e+01;2.517237e+00;-3.413875e+00;0.000000e+00;4.025461e+02;5.343373e+01
7.300000e-01;-3.700000e+01;2.920064e+00;-3.360876e+00;0.000000e+00;4.031013e+02;5.256250e+01
7.310000e-01;-3.700000e+01;3.323439e+00;-3.308750e+00;0.000000e+00;4.036421e+02;5.168973e+01
7.320000e-01;-3.700000e+01;3.727348e+00;-3.257497e+00;0.000000e+00;4.041643e+02;5.081558e+01
7.330000e-01;-3.700000e+01;4.131768e+00;-3.207118e+00;0.000000e+00;4.046635e+02;4.993962e+01
7.340000e-01;-3.700000e+01;4.536675e+00;-3.157617e+00;0.000000e+00;4.051398e+02;4.906184e+01
7.350000e-01;-3.700000e+01;4.942047e+00;-3.108995e+00;0.000000e+00;4.055932e+02;4.818225e+01
7.360000e-01;-3.700000e+01;5.347861e+00;-3.061253e+00;0.000000e+00;4.060236e+02;4.730085e+01
7.370000e-01;-3.700000e+01;5.754095e+00;-3.014393e+00;0.000000e+00;4.064312e+02;4.641763e+01
7.380000e-01;-3.700000e+01;6.160724e+00;-2.968418e+00;0.000000e+00;4.068159e+02;4.553261e+01
7.390000e-01;-3.700000e+01;6.567726e+00;-2.923328e+00;0.000000e+00;4.071776e+02;4.464576e+01
7.400000e-01;-3.700000e+01;6.975079e+00;-2.879126e+00;0.000000e+00;4.075207e+02;4.375748e+01
7.410000e-01;-3.700000e+01;7.382768e+00;-2.835813e+00;0.000000e+00;4.078493e+02;4.286858e+01
7.420000e-01;-3.700000e+01;7.790778e+00;-2.793389e+00;0.000000e+00;4.081594e+02;4.197943e+01
7.430000e-01;-3.700000e+01;8.199086e+00;-2.751854e+00;0.000000e+00;4.084467e+02;4.108988e+01
7.440000e-01;-3.700000e+01;8.607671e+00;-2.711209e+00;0.000000e+00;4.087112e+02;4.019993e+01
7.450000e-01;-3.700000e+01;9.016509e+00;-2.671454e+00;0.000000e+00;4.089531e+02;3.930958e+01
7.460000e-01;-3.700000e+01;9.425577e+00;-2.632590e+00;0.000000e+00;4.091721e+02;3.841884e+01
7.470000e-01;-3.700000e+01;9.834853e+00;-2.594617e+00;0.000000e+00;4.093685e+02;3.752771e+01
7.480000e-01;-3.700000e+01;1.024431e+01;-2.557534e+00;0.000000e+00;4.095421e+02;3.663618e+01
7.490000e-01;-3.700000e+01;1.065394e+01;-2.521344e+00;0.000000e+00;4.096929e+02;3.574425e+01
7.500000e-01;-3.700000e+01;1.106370e+01;-2.486046e+00;0.000000e+00;4.098251e+02;3.485199e+01
7.510000e-01;-3.700000e+01;1.147359e+01;-2.451640e+00;0.000000e+00;4.099431e+02;3.395990e+01
7.520000e-01;-3.700000e+01;1.188359e+01;-2.418126e+00;0.000000e+00;4.100428e+02;3.306855e+01
7.530000e-01;-3.700000e+01;1.229367e+01;-2.385503e+00;0.000000e+00;4.101201e+02;3.217808e+01
7.540000e-01;-3.700000e+01;1.270383e+01;-2.353770e+00;0.000000e+00;4.101749e+02;3.128849e+01
7.550000e-01;-3.700000e+01;1.311402e+01;-2.322926e+00;0.000000e+00;4.102074e+02;3.039978e+01
7.560000e-01;-3.700000e+01;1.352424e+01;-2.292970e+00;0.000000e+00;4.102174e+02;2.951195e+01
7.570000e-01;-3.700000e+01;1.393446e+01;-2.263902e+00;0.000000e+00;4.102050e+02;2.862500e+01
7.580000e-01;-3.700000e+01;1.434465e+01;-2.235720e+00;0.000000e+00;4.101702e+02;2.773893e+01
7.590000e-01;-3.700000e+01;1.475480e+01;-2.208424e+00;0.000000e+00;4.101130e+02;2.685374e+01
7.600000e-01;-3.700000e+01;1.516488e+01;-2.182013e+00;0.000000e+00;4.100375e+02;2.596922e+01
7.610000e-01;-3.700000e+01;1.557487e+01;-2.156486e+00;0.000000e+00;4.099479e+02;2.508565e+01
7.620000e-01;-3.700000e+01;1.598477e+01;-2.131842e+00;0.000000e+00;4.098405e+02;2.420390e+01
7.630000e-01;-3.700000e+01;1.639455e+01;-2.108078e+00;0.000000e+00;4.097111e+02;2.332440e+01
7.640000e-01;-3.700000e+01;1.680419e+01;-2.085193e+00;0.000000e+00;4.095598e+02;2.244716e+01
7.650000e-01;-3.700000e+01;1.721367e+01;-2.063184e+00;0.000000e+00;4.093866e+02;2.157218e+01
7.660000e-01;-3.700000e+01;1.762297e+01;-2.042049e+00;0.000000e+00;4.091915e+02;2.069945e+01
7.670000e-01;-3.700000e+01;1.803206e+01;-2.021785e+00;0.000000e+00;4.089744e+02;1.982898e+01
7.680000e-01;-3.700000e+01;1.844092e+01;-2.002391e+00;0.000000e+00;4.087355e+02;1.896076e+01
7.690000e-01;-3.700000e+01;1.884953e+01;-1.983863e+00;0.000000e+00;4.084746e+02;1.809480e+01
7.700000e-01;-3.700000e+01;1.925787e+01;-1.966201e+00;0.000000e+00;4.081959e+02;1.723061e+01
7.710000e-01;-3.700000e+01;1.966592e+01;-1.949402e+00;0.000000e+00;4.079036e+02;1.636824e+01
7.720000e-01;-3.700000e+01;2.007367e+01;-1.933465e+00;0.000000e+00;4.075940e+02;1.550897e+01
7.730000e-01;-3.700000e+01;2.048111e+01;-1.918384e+00;0.000000e+00;4.072631e+02;1.465356e+01
7.740000e-01;-3.700000e+01;2.088820e+01;-1.904157e+00;0.000000e+00;4.069109e+02;1.380200e+01
7.750000e-01;-3.700000e+01;2.129493e+01;-1.890780e+00;0.000000e+00;4.065373e+02;1.295429e+01
7.760000e-01;-3.700000e+01;2.170127e+01;-1.878249e+00;0.000000e+00;4.061424e+02;1.211043e+01
7.770000e-01;-3.700000e+01;2.210721e+01;-1.866559e+00;0.000000e+00;4.057262e+02;1.127043e+01
7.780000e-01;-3.700000e+01;2.251273e+01;-1.855708e+00;0.000000e+00;4.052887e+02;1.043428e+01
7.790000e-01;-3.700000e+01;2.291779e+01;-1.845691e+00;0.000000e+00;4.048299e+02;9.601986e+00
7.800000e-01;-3.700000e+01;2.332239e+01;-1.836504e+00;0.000000e+00;4.043536e+02;8.772780e+00
7.810000e-01;-3.700000e+01;2.372650e+01;-1.828145e+00;0.000000e+00;4.038642e+02;7.946510e+00
7.820000e-01;-3.700000e+01;2.413011e+01;-1.820611e+00;0.000000e+00;4.033581e+02;7.124853e+00
7.830000e-01;-3.700000e+01;2.453321e+01;-1.813896e+00;0.000000e+00;4.028316e+02;6.308877e+00
7.840000e-01;-3.700000e+01;2.493578e+01;-1.807993e+00;0.000000e+00;4.022847e+02;5.498584e+00
7.850000e-01;-3.700000e+01;2.533778e+01;-1.802898e+00;0.000000e+00;4.017173e+02;4.693972e+00
7.860000e-01;-3.700000e+01;2.573921e+01;-1.798605e+00;0.000000e+00;4.011296e+02;3.895043e+00
7.870000e-01;-3.700000e+01;2.614004e+01;-1.795108e+00;0.000000e+00;4.005214e+02;3.101795e+00
7.880000e-01;-3.700000e+01;2.654026e+01;-1.792402e+00;0.000000e+00;3.998928e+02;2.314229e+00
7.890000e-01;-3.700000e+01;2.693983e+01;-1.790480e+00;0.000000e+00;3.992438e+02;1.532345e+00
7.900000e-01;-3.700000e+01;2.733874e+01;-1.789337e+00;0.000000e+00;3.985781e+02;7.550672e-01
7.910000e-01;-3.700000e+01;2.773699e+01;-1.788970e+00;0.000000e+00;3.978996e+02;-1.800925e-02
7.920000e-01;-3.700000e+01;2.813454e+01;-1.789373e+00;0.000000e+00;3.972051e+02;-7.848003e-01
7.930000e-01;-3.700000e+01;2.853140e+01;-1.790539e+00;0.000000e+00;3.964910e+02;-1.543894e+00
7.940000e-01;-3.700000e+01;2.892752e+01;-1.792461e+00;0.000000e+00;3.957574e+02;-2.295290e+00
7.950000e-01;-3.700000e+01;2.932291e+01;-1.795130e+00;0.000000e+00;3.950044e+02;-3.038989e+00
7.960000e-01;-3.700000e+01;2.971753e+01;-1.798539e+00;0.000000e+00;3.942318e+02;-3.774991e+00
7.970000e-01;-3.700000e+01;3.011137e+01;-1.802680e+00;0.000000e+00;3.934396e+02;-4.503295e+00
7.980000e-01;-3.700000e+01;3.050441e+01;-1.807545e+00;0.000000e+00;3.926280e+02;-5.223902e+00
7.990000e-01;-3.700000e+01;3.089663e+01;-1.813128e+00;0.000000e+00;3.917968e+02;-5.936812e+00
8.000000e-01;-3.700000e+01;3.128801e+01;-1.819419e+00;0.000000e+00;3.909497e+02;-6.643445e+00
8.010000e-01;-3.700000e+01;3.167853e+01;-1.826415e+00;0.000000e+00;3.900906e+02;-7.344565e+00
8.020000e-01;-3.700000e+01;3.206819e+01;-1.834108e+00;0.000000e+00;3.892165e+02;-8.037767e+00
8.030000e-01;-3.700000e+01;3.245696e+01;-1.842490e+00;0.000000e+00;3.883238e+02;-8.721302e+00
8.040000e-01;-3.700000e+01;3.284483e+01;-1.851551e+00;0.000000e+00;3.874126e+02;-9.395170e+00
8.050000e-01;-3.700000e+01;3.323179e+01;-1.861280e+00;0.000000e+00;3.864829e+02;-1.005937e+01
8.060000e-01;-3.700000e+01;3.361780e+01;-1.871669e+00;0.000000e+00;3.855347e+02;-1.071390e+01
8.070000e-01;-3.700000e+01;3.400286e+01;-1.882708e+00;0.000000e+00;3.845680e+02;-1.135877e+01
8.080000e-01;-3.700000e+01;3.438694e+01;-1.894387e+00;0.000000e+00;3.835828e+02;-1.199397e+01
8.090000e-01;-3.700000e+01;3.477002e+01;-1.906696e+00;0.000000e+00;3.825791e+02;-1.261950e+01
8.100000e-01;-3.700000e+01;3.515209e+01;-1.919626e+00;0.000000e+00;3.815604e+02;-1.323710e+01
8.110000e-01;-3.700000e+01;3.553314e+01;-1.933170e+00;0.000000e+00;3.805304e+02;-1.384795e+01
8.120000e-01;-3.700000e+01;3.591316e+01;-1.947322e+00;0.000000e+00;3.794864e+02;-1.444945e+01
8.130000e-01;-3.700000e+01;3.629212e+01;-1.962069e+00;0.000000e+00;3.784250e+02;-1.503959e+01
8.140000e-01;-3.700000e+01;3.667001e+01;-1.977401e+00;0.000000e+00;3.773462e+02;-1.561836e+01
8.150000e-01;-3.700000e+01;3.704681e+01;-1.993306e+00;0.000000e+00;3.762501e+02;-1.618577e+01
8.160000e-01;-3.700000e+01;3.742251e+01;-2.009773e+00;0.000000e+00;3.751366e+02;-1.674181e+01
8.170000e-01;-3.700000e+01;3.779708e+01;-2.026790e+00;0.000000e+00;3.740058e+02;-1.728648e+01
8.180000e-01;-3.700000e+01;3.817052e+01;-2.044346e+00;0.000000e+00;3.728576e+02;-1.781978e+01
8.190000e-01;-3.700000e+01;3.854280e+01;-2.062429e+00;0.000000e+00;3.716920e+02;-1.834172e+01
8.200000e-01;-3.700000e+01;3.891390e+01;-2.081029e+00;0.000000e+00;3.705123e+02;-1.885431e+01
8.210000e-01;-3.700000e+01;3.928382e+01;-2.100138e+00;0.000000e+00;3.693219e+02;-1.935918e+01
8.220000e-01;-3.700000e+01;3.965255e+01;-2.119747e+00;0.000000e+00;3.681184e+02;-1.985373e+01
8.230000e-01;-3.700000e+01;4.002006e+01;-2.139845e+00;0.000000e+00;3.668989e+02;-2.033576e+01
8.240000e-01;-3.700000e+01;4.038634e+01;-2.160419e+00;0.000000e+00;3.656634e+02;-2.080526e+01
8.250000e-01;-3.700000e+01;4.075138e+01;-2.181456e+00;0.000000e+00;3.644119e+02;-2.126222e+01
8.260000e-01;-3.700000e+01;4.111517e+01;-2.202943e+00;0.000000e+00;3.631444e+02;-2.170666e+01
8.270000e-01;-3.700000e+01;4.147767e+01;-2.224869e+00;0.000000e+00;3.618609e+02;-2.213856e+01
8.280000e-01;-3.700000e+01;4.183889e+01;-2.247220e+00;0.000000e+00;3.605613e+02;-2.255793e+01
8.290000e-01;-3.700000e+01;4.219880e+01;-2.269985e+00;0.000000e+00;3.592458e+02;-2.296478e+01
8.300000e-01;-3.700000e+01;4.255738e+01;-2.293150e+00;0.000000e+00;3.579172e+02;-2.336129e+01
8.310000e-01;-3.700000e+01;4.291463e+01;-2.316708e+00;0.000000e+00;3.565789e+02;-2.374953e+01
8.320000e-01;-3.700000e+01;4.327054e+01;-2.340649e+00;0.000000e+00;3.552286e+02;-2.412711e+01
8.330000e-01;-3.700000e+01;4.362509e+01;-2.364962e+00;0.000000e+00;3.538633e+02;-2.449175e+01
8.340000e-01;-3.700000e+01;4.397826e+01;-2.389633e+00;0.000000e+00;3.524833e+02;-2.484346e+01
8.350000e-01;-3.700000e+01;4.433005e+01;-2.414649e+00;0.000000e+00;3.510884e+02;-2.518223e+01
8.360000e-01;-3.700000e+01;4.468044e+01;-2.439997e+00;0.000000e+00;3.496786e+02;-2.550807e+01
8.370000e-01;-3.700000e+01;4.502941e+01;-2.465665e+00;0.000000e+00;3.482539e+02;-2.582098e+01
8.380000e-01;-3.700000e+01;4.537695e+01;-2.491639e+00;0.000000e+00;3.468144e+02;-2.612096e+01
8.390000e-01;-3.700000e+01;4.572304e+01;-2.517907e+00;0.000000e+00;3.453601e+02;-2.640800e+01
8.400000e-01;-3.700000e+01;4.606767e+01;-2.544455e+00;0.000000e+00;3.438937e+02;-2.668436e+01
8.410000e-01;-3.700000e+01;4.641083e+01;-2.571275e+00;0.000000e+00;3.424187e+02;-2.695243e+01
8.420000e-01;-3.700000e+01;4.675251e+01;-2.598360e+00;0.000000e+00;3.409328e+02;-2.721019e+01
8.430000e-01;-3.700000e+01;4.709269e+01;-2.625696e+00;0.000000e+00;3.394335e+02;-2.745549e+01
8.440000e-01;-3.700000e+01;4.743137e+01;-2.653271e+00;0.000000e+00;3.379209e+02;-2.768832e+01
8.450000e-01;-3.700000e+01;4.776853e+01;-2.681072e+00;0.000000e+00;3.363948e+02;-2.790868e+01
8.460000e-01;-3.700000e+01;4.810416e+01;-2.709088e+00;0.000000e+00;3.348554e+02;-2.811657e+01
8.470000e-01;-3.700000e+01;4.843825e+01;-2.737306e+00;0.000000e+00;3.333026e+02;-2.831199e+01
8.480000e-01;-3.700000e+01;4.877077e+01;-2.765712e+00;0.000000e+00;3.317365e+02;-2.849494e+01
8.490000e-01;-3.700000e+01;4.910172e+01;-2.794295e+00;0.000000e+00;3.301569e+02;-2.866542e+01
8.500000e-01;-3.700000e+01;4.943108e+01;-2.823043e+00;0.000000e+00;3.285663e+02;-2.882559e+01
8.510000e-01;-3.700000e+01;4.975885e+01;-2.851947e+00;0.000000e+00;3.269676e+02;-2.897807e+01
8.520000e-01;-3.700000e+01;5.008502e+01;-2.880999e+00;0.000000e+00;3.253591e+02;-2.912134e+01
8.530000e-01;-3.700000e+01;5.040957e+01;-2.910189e+00;0.000000e+00;3.237387e+02;-2.925346e+01
8.540000e-01;-3.700000e+01;5.073249e+01;-2.939506e+00;0.000000e+00;3.221063e+02;-2.937444e+01
8.550000e-01;-3.700000e+01;5.105378e+01;-2.968938e+00;0.000000e+00;3.204621e+02;-2.948428e+01
8.560000e-01;-3.700000e+01;5.137342e+01;-2.998475e+00;0.000000e+00;3.188059e+02;-2.958297e+01
8.570000e-01;-3.700000e+01;5.169139e+01;-3.028104e+00;0.000000e+00;3.171379e+02;-2.967052e+01
8.580000e-01;-3.700000e+01;5.200769e+01;-3.057816e+00;0.000000e+00;3.154579e+02;-2.974692e+01
8.590000e-01;-3.700000e+01;5.232231e+01;-3.087598e+00;0.000000e+00;3.137660e+02;-2.981217e+01
8.600000e-01;-3.700000e+01;5.263523e+01;-3.117440e+00;0.000000e+00;3.120643e+02;-2.986823e+01
8.610000e-01;-3.700000e+01;5.294644e+01;-3.147334e+00;0.000000e+00;3.103554e+02;-2.991772e+01
8.620000e-01;-3.700000e+01;5.325594e+01;-3.177275e+00;0.000000e+00;3.086379e+02;-2.995972e+01
8.630000e-01;-3.700000e+01;5.356371e+01;-3.207254e+00;0.000000e+00;3.069098e+02;-2.999262e+01
8.640000e-01;-3.700000e+01;5.386976e+01;-3.237261e+00;0.000000e+00;3.051711e+02;-3.001642e+01
8.650000e-01;-3.700000e+01;5.417406e+01;-3.267287e+00;0.000000e+00;3.034219e+02;-3.003111e+01
8.660000e-01;-3.700000e+01;5.447660e+01;-3.297323e+00;0.000000e+00;3.016621e+02;-3.003670e+01
8.670000e-01;-3.700000e+01;5.477738e+01;-3.327360e+00;0.000000e+00;2.998918e+02;-3.003319e+01
8.680000e-01;-3.700000e+01;5.507638e+01;-3.357389e+00;0.000000e+00;2.981109e+02;-3.002057e+01
8.690000e-01;-3.700000e+01;5.537360e+01;-3.387401e+00;0.000000e+00;2.963195e+02;-2.999886e+01
8.700000e-01;-3.700000e+01;5.566902e+01;-3.417387e+00;0.000000e+00;2.945194e+02;-2.996966e+01
8.710000e-01;-3.700000e+01;5.596264e+01;-3.447341e+00;0.000000e+00;2.927131e+02;-2.993544e+01
8.720000e-01;-3.700000e+01;5.625445e+01;-3.477258e+00;0.000000e+00;2.908994e+02;-2.989581e+01
8.730000e-01;-3.700000e+01;5.654444e+01;-3.507132e+00;0.000000e+00;2.890766e+02;-2.984957e+01
8.740000e-01;-3.700000e+01;5.683260e+01;-3.536957e+00;0.000000e+00;2.872448e+02;-2.979672e+01
8.750000e-01;-3.700000e+01;5.711893e+01;-3.566726e+00;0.000000e+00;2.854038e+02;-2.973725e+01
8.760000e-01;-3.700000e+01;5.740341e+01;-3.596432e+00;0.000000e+00;2.835537e+02;-2.967117e+01
8.770000e-01;-3.700000e+01;5.768604e+01;-3.626068e+00;0.000000e+00;2.816946e+02;-2.959848e+01
8.780000e-01;-3.700000e+01;5.796680e+01;-3.655628e+00;0.000000e+00;2.798263e+02;-2.951917e+01
8.790000e-01;-3.700000e+01;5.824569e+01;-3.685106e+00;0.000000e+00;2.779490e+02;-2.943326e+01
8.800000e-01;-3.700000e+01;5.852270e+01;-3.714495e+00;0.000000e+00;2.760642e+02;-2.934195e+01
8.810000e-01;-3.700000e+01;5.879782e+01;-3.743790e+00;0.000000e+00;2.741741e+02;-2.924733e+01
8.820000e-01;-3.700000e+01;5.907105e+01;-3.772990e+00;0.000000e+00;2.722777e+02;-2.914947e+01
8.830000e-01;-3.700000e+01;5.934237e+01;-3.802089e+00;0.000000e+00;2.703737e+02;-2.904756e+01
8.840000e-01;-3.700000e+01;5.961179e+01;-3.831085e+00;0.000000e+00;2.684619e+02;-2.894163e+01
8.850000e-01;-3.700000e+01;5.987930e+01;-3.859972e+00;0.000000e+00;2.665425e+02;-2.883165e+01
8.860000e-01;-3.700000e+01;6.014488e+01;-3.888748e+00;0.000000e+00;2.646154e+02;-2.871764e+01
8.870000e-01;-3.700000e+01;6.040853e+01;-3.917408e+00;0.000000e+00;2.626805e+02;-2.859958e+01
8.880000e-01;-3.700000e+01;6.067024e+01;-3.945947e+00;0.000000e+00;2.607380e+02;-2.847750e+01
8.890000e-01;-3.700000e+01;6.093000e+01;-3.974363e+00;0.000000e+00;2.587878e+02;-2.835137e+01
8.900000e-01;-3.700000e+01;6.118782e+01;-4.002650e+00;0.000000e+00;2.568314e+02;-2.822202e+01
8.910000e-01;-3.700000e+01;6.144367e+01;-4.030807e+00;0.000000e+00;2.548706e+02;-2.809101e+01
8.920000e-01;-3.700000e+01;6.169756e+01;-4.058832e+00;0.000000e+00;2.529048e+02;-2.795865e+01
8.930000e-01;-3.700000e+01;6.194948e+01;-4.086724e+00;0.000000e+00;2.509326e+02;-2.782451e+01
8.940000e-01;-3.700000e+01;6.219942e+01;-4.114481e+00;0.000000e+00;2.489541e+02;-2.768857e+01
8.950000e-01;-3.700000e+01;6.244738e+01;-4.142101e+00;0.000000e+00;2.469692e+02;-2.755085e+01
8.960000e-01;-3.700000e+01;6.269336e+01;-4.169583e+00;0.000000e+00;2.449781e+02;-2.741134e+01
8.970000e-01;-3.700000e+01;6.293734e+01;-4.196924e+00;0.000000e+00;2.429806e+02;-2.727004e+01
8.980000e-01;-3.700000e+01;6.317932e+01;-4.224123e+00;0.000000e+00;2.409768e+02;-2.712696e+01
8.990000e-01;-3.700000e+01;6.341929e+01;-4.251178e+00;0.000000e+00;2.389667e+02;-2.698208e+01
9.000000e-01;-3.700000e+01;6.365725e+01;-4.278087e+00;0.000000e+00;2.369515e+02;-2.683587e+01
9.010000e-01;-3.700000e+01;6.389320e+01;-4.304850e+00;0.000000e+00;2.349327e+02;-2.668930e+01
9.020000e-01;-3.700000e+01;6.412712e+01;-4.331466e+00;0.000000e+00;2.329100e+02;-2.654270e+01
9.030000e-01;-3.700000e+01;6.435902e+01;-4.357935e+00;0.000000e+00;2.308824e+02;-2.639588e+01
9.040000e-01;-3.700000e+01;6.458888e+01;-4.384257e+00;0.000000e+00;2.288498e+02;-2.624884e+01
9.050000e-01;-3.700000e+01;6.481672e+01;-4.410433e+00;0.000000e+00;2.268123e+02;-2.610158e+01
9.060000e-01;-3.700000e+01;6.504251e+01;-4.436461e+00;0.000000e+00;2.247699e+02;-2.595410e+01
9.070000e-01;-3.700000e+01;6.526626e+01;-4.462341e+00;0.000000e+00;2.227226e+02;-2.580640e+01
9.080000e-01;-3.700000e+01;6.548795e+01;-4.488073e+00;0.000000e+00;2.206703e+02;-2.565848e+01
9.090000e-01;-3.700000e+01;6.570760e+01;-4.513658e+00;0.000000e+00;2.186131e+02;-2.551034e+01
9.100000e-01;-3.700000e+01;6.592518e+01;-4.539094e+00;0.000000e+00;2.165519e+02;-2.536218e+01
9.110000e-01;-3.700000e+01;6.614070e+01;-4.564382e+00;0.000000e+00;2.144882e+02;-2.521441e+01
9.120000e-01;-3.700000e+01;6.635416e+01;-4.589523e+00;0.000000e+00;2.124215e+02;-2.506711e+01
9.130000e-01;-3.700000e+01;6.656554e+01;-4.614516e+00;0.000000e+00;2.103511e+02;-2.492016e+01
9.140000e-01;-3.700000e+01;6.677486e+01;-4.639363e+00;0.000000e+00;2.082771e+02;-2.477355e+01
9.150000e-01;-3.700000e+01;6.698210e+01;-4.664063e+00;0.000000e+00;2.061993e+02;-2.462730e+01
9.160000e-01;-3.700000e+01;6.718726e+01;-4.688618e+00;0.000000e+00;2.041178e+02;-2.448140e+01
9.170000e-01;-3.700000e+01;6.739033e+01;-4.713026e+00;0.000000e+00;2.020326e+02;-2.433584e+01
9.180000e-01;-3.700000e+01;6.759132e+01;-4.737289e+00;0.000000e+00;1.999436e+02;-2.419064e+01
9.190000e-01;-3.700000e+01;6.779022e+01;-4.761408e+00;0.000000e+00;1.978510e+02;-2.404579e+01
9.200000e-01;-3.700000e+01;6.798703e+01;-4.785381e+00;0.000000e+00;1.957554e+02;-2.390140e+01
9.210000e-01;-3.700000e+01;6.818173e+01;-4.809210e+00;0.000000e+00;1.936579e+02;-2.375742e+01
9.220000e-01;-3.700000e+01;6.837434e+01;-4.832896e+00;0.000000e+00;1.915585e+02;-2.361347e+01
9.230000e-01;-3.700000e+01;6.856485e+01;-4.856437e+00;0.000000e+00;1.894567e+02;-2.346936e+01
9.240000e-01;-3.700000e+01;6.875325e+01;-4.879835e+00;0.000000e+00;1.873526e+02;-2.332509e+01
9.250000e-01;-3.700000e+01;6.893955e+01;-4.903087e+00;0.000000e+00;1.852462e+02;-2.318065e+01
9.260000e-01;-3.700000e+01;6.912375e+01;-4.926196e+00;0.000000e+00;1.831375e+02;-2.303605e+01
9.270000e-01;-3.700000e+01;6.930583e+01;-4.949160e+00;0.000000e+00;1.810264e+02;-2.289129e+01
9.280000e-01;-3.700000e+01;6.948580e+01;-4.971978e+00;0.000000e+00;1.789129e+02;-2.274636e+01
9.290000e-01;-3.700000e+01;6.966366e+01;-4.994652e+00;0.000000e+00;1.767971e+02;-2.260128e+01
9.300000e-01;-3.700000e+01;6.983939e+01;-5.017181e+00;0.000000e+00;1.746793e+02;-2.245621e+01
9.310000e-01;-3.700000e+01;7.001301e+01;-5.039565e+00;0.000000e+00;1.725603e+02;-2.231082e+01
9.320000e-01;-3.700000e+01;7.018451e+01;-5.061803e+00;0.000000e+00;1.704402e+02;-2.216412e+01
9.330000e-01;-3.700000e+01;7.035389e+01;-5.083893e+00;0.000000e+00;1.683188e+02;-2.201565e+01
9.340000e-01;-3.700000e+01;7.052115e+01;-5.105834e+00;0.000000e+00;1.661962e+02;-2.186540e+01
9.350000e-01;-3.700000e+01;7.068629e+01;-5.127624e+00;0.000000e+00;1.640723e+02;-2.171339e+01
9.360000e-01;-3.700000e+01;7.084930e+01;-5.149261e+00;0.000000e+00;1.619472e+02;-2.155960e+01
9.370000e-01;-3.700000e+01;7.101018e+01;-5.170743e+00;0.000000e+00;1.598208e+02;-2.140404e+01
9.380000e-01;-3.700000e+01;7.116894e+01;-5.192069e+00;0.000000e+00;1.576932e+02;-2.124671e+01
9.390000e-01;-3.700000e+01;7.132557e+01;-5.213236e+00;0.000000e+00;1.555643e+02;-2.108760e+01
9.400000e-01;-3.700000e+01;7.148007e+01;-5.234244e+00;0.000000e+00;1.534344e+02;-2.092718e+01
9.410000e-01;-3.700000e+01;7.163244e+01;-5.255091e+00;0.000000e+00;1.513040e+02;-2.076508e+01
9.420000e-01;-3.700000e+01;7.178268e+01;-5.275774e+00;0.000000e+00;1.491736e+02;-2.059965e+01
9.430000e-01;-3.700000e+01;7.193078e+01;-5.296290e+00;0.000000e+00;1.470429e+02;-2.043002e+01
9.440000e-01;-3.700000e+01;7.207676e+01;-5.316634e+00;0.000000e+00;1.449121e+02;-2.025620e+01
9.450000e-01;-3.700000e+01;7.222061e+01;-5.336802e+00;0.000000e+00;1.427811e+02;-2.007818e+01
9.460000e-01;-3.700000e+01;7.236232e+01;-5.356791e+00;0.000000e+00;1.406499e+02;-1.989597e+01
9.470000e-01;-3.700000e+01;7.250191e+01;-5.376594e+00;0.000000e+00;1.385185e+02;-1.970956e+01
9.480000e-01;-3.700000e+01;7.263936e+01;-5.396210e+00;0.000000e+00;1.363870e+02;-1.951896e+01
9.490000e-01;-3.700000e+01;7.277468e+01;-5.415632e+00;0.000000e+00;1.342552e+02;-1.932416e+01
9.500000e-01;-3.700000e+01;7.290787e+01;-5.434858e+00;4.029890e-02;1.321234e+02;-1.912601e+01
9.510000e-01;-3.699992e+01;7.303893e+01;-5.453884e+00;3.223434e-01;1.299918e+02;-1.892438e+01
9.520000e-01;-3.699936e+01;7.316785e+01;-5.472707e+00;1.047342e+00;1.278608e+02;-1.871703e+01
9.530000e-01;-3.699782e+01;7.329465e+01;-5.491318e+00;2.254877e+00;1.257307e+02;-1.850263e+01
9.540000e-01;-3.699485e+01;7.341932e+01;-5.509712e+00;3.943759e+00;1.236013e+02;-1.828118e+01
9.550000e-01;-3.698994e+01;7.354185e+01;-5.527881e+00;6.112319e+00;1.214727e+02;-1.805268e+01
9.560000e-01;-3.698262e+01;7.366226e+01;-5.545817e+00;8.758417e+00;1.193449e+02;-1.781714e+01
9.570000e-01;-3.697242e+01;7.378054e+01;-5.563515e+00;1.187944e+01;1.172178e+02;-1.757456e+01
9.580000e-01;-3.695886e+01;7.389670e+01;-5.580967e+00;1.547232e+01;1.150915e+02;-1.732493e+01
9.590000e-01;-3.694148e+01;7.401073e+01;-5.598165e+00;1.953349e+01;1.129660e+02;-1.706825e+01
9.600000e-01;-3.691980e+01;7.412263e+01;-5.615103e+00;2.405896e+01;1.108412e+02;-1.680580e+01
9.610000e-01;-3.689336e+01;7.423241e+01;-5.631776e+00;2.904426e+01;1.087171e+02;-1.653796e+01
9.620000e-01;-3.686171e+01;7.434006e+01;-5.648179e+00;3.448446e+01;1.065945e+02;-1.626207e+01
9.630000e-01;-3.682439e+01;7.444560e+01;-5.664301e+00;4.037420e+01;1.044735e+02;-1.597641e+01
9.640000e-01;-3.678096e+01;7.454901e+01;-5.680132e+00;4.670767e+01;1.023542e+02;-1.568098e+01
9.650000e-01;-3.673097e+01;7.465030e+01;-5.695663e+00;5.347862e+01;1.002366e+02;-1.537578e+01
9.660000e-01;-3.667400e+01;7.474948e+01;-5.710883e+00;6.068036e+01;9.812072e+01;-1.506081e+01
9.670000e-01;-3.660961e+01;7.484655e+01;-5.725784e+00;6.830578e+01;9.600651e+01;-1.473607e+01
9.680000e-01;-3.653739e+01;7.494150e+01;-5.740355e+00;7.634737e+01;9.389399e+01;-1.440156e+01
9.690000e-01;-3.645692e+01;7.503433e+01;-5.754587e+00;8.479718e+01;9.178315e+01;-1.405728e+01
9.700000e-01;-3.636779e+01;7.512506e+01;-5.768470e+00;9.364688e+01;8.967369e+01;-1.370489e+01
9.710000e-01;-3.626962e+01;7.521368e+01;-5.781997e+00;1.028877e+02;8.756554e+01;-1.334539e+01
9.720000e-01;-3.616202e+01;7.530019e+01;-5.795161e+00;1.125106e+02;8.545939e+01;-1.297609e+01
9.730000e-01;-3.604460e+01;7.538460e+01;-5.807949e+00;1.225060e+02;8.335568e+01;-1.259499e+01
9.740000e-01;-3.591701e+01;7.546690e+01;-5.820351e+00;1.328641e+02;8.125443e+01;-1.220209e+01
9.750000e-01;-3.577887e+01;7.554711e+01;-5.832353e+00;1.435747e+02;7.915562e+01;-1.179740e+01
9.760000e-01;-3.562986e+01;7.562522e+01;-5.843946e+00;1.546271e+02;7.705926e+01;-1.138090e+01
9.770000e-01;-3.546962e+01;7.570123e+01;-5.855115e+00;1.660105e+02;7.496534e+01;-1.095261e+01
9.780000e-01;-3.529784e+01;7.577515e+01;-5.865851e+00;1.777136e+02;7.287387e+01;-1.051251e+01
9.790000e-01;-3.511419e+01;7.584698e+01;-5.876140e+00;1.897249e+02;7.078485e+01;-1.006062e+01
9.800000e-01;-3.491839e+01;7.591672e+01;-5.885972e+00;2.020326e+02;6.869793e+01;-9.598885e+00
9.810000e-01;-3.471013e+01;7.598437e+01;-5.895338e+00;2.146244e+02;6.661295e+01;-9.129001e+00
9.820000e-01;-3.448914e+01;7.604994e+01;-5.904230e+00;2.274881e+02;6.453058e+01;-8.648597e+00
9.830000e-01;-3.425515e+01;7.611343e+01;-5.912635e+00;2.406107e+02;6.245126e+01;-8.155575e+00
9.840000e-01;-3.400792e+01;7.617485e+01;-5.920541e+00;2.539795e+02;6.037500e+01;-7.649933e+00
9.850000e-01;-3.374719e+01;7.623418e+01;-5.927935e+00;2.675812e+02;5.830179e+01;-7.131674e+00
9.860000e-01;-3.347275e+01;7.629145e+01;-5.934804e+00;2.814025e+02;5.623163e+01;-6.600796e+00
9.870000e-01;-3.318439e+01;7.634665e+01;-5.941137e+00;2.954295e+02;5.416453e+01;-6.057299e+00
9.880000e-01;-3.288190e+01;7.639978e+01;-5.946919e+00;3.096486e+02;5.210049e+01;-5.501184e+00
9.890000e-01;-3.256509e+01;7.645085e+01;-5.952139e+00;3.240457e+02;5.003950e+01;-4.932451e+00
9.900000e-01;-3.223380e+01;7.649986e+01;-5.956784e+00;3.386066e+02;4.798108e+01;-4.353146e+00
9.910000e-01;-3.188788e+01;7.654681e+01;-5.960845e+00;3.533168e+02;4.592497e+01;-3.765606e+00
9.920000e-01;-3.152717e+01;7.659171e+01;-5.964315e+00;3.681620e+02;4.387198e+01;-3.168221e+00
9.930000e-01;-3.115155e+01;7.663455e+01;-5.967182e+00;3.831274e+02;4.182272e+01;-2.559089e+00
9.940000e-01;-3.076092e+01;7.667535e+01;-5.969433e+00;3.981983e+02;3.977717e+01;-1.938211e+00
9.950000e-01;-3.035516e+01;7.671411e+01;-5.971058e+00;4.133597e+02;3.773534e+01;-1.305586e+00
9.960000e-01;-2.993420e+01;7.675082e+01;-5.972045e+00;4.285968e+02;3.569723e+01;-6.612151e-01
9.970000e-01;-2.949796e+01;7.678550e+01;-5.972381e+00;4.438945e+02;3.366284e+01;-5.097040e-03
9.980000e-01;-2.904641e+01;7.681815e+01;-5.972055e+00;4.592377e+02;3.163217e+01;6.627676e-01
9.990000e-01;-2.857949e+01;7.684877e+01;-5.971055e+00;4.746113e+02;2.960522e+01;1.342379e+00
0.000000e+00;-2.809718e+01;7.687736e+01;-5.969370e+00;4.900000e+02;1.429634e+01;8.425606e-01
